# Macroscopic dielectric function obtained with the BS equation.
#  RPA L0 with KS energies and KS wavefunctions     LOCAL FIELD EFFECTS INCLUDED
# RESONANT-ONLY calculation
# Coulomb term constructed with full W(G1,G2)
# Scissor operator energy =  0.8000 [eV]
# nstates included in the diagonalization = 96
# npweps  = 113
# npwwfn  = 259
# nbands  = 8
# loband  = 2
# nkibz   = 3
# nkbz    = 8
# Lorentzian broadening =  0.0000 [eV]
# List of q-points for the optical limit:
# q =  0.938821, 0.000000, 0.000000, [Reduced coords] 
# q =  0.000000, 0.938821, 0.000000, [Reduced coords] 
# q =  0.000000, 0.000000, 0.938821, [Reduced coords] 
# q =  0.000000, 0.813043, 0.813043, [Reduced coords] 
# q =  0.813043, 0.000000, 0.813043, [Reduced coords] 
# q =  0.813043, 0.813043, 0.000000, [Reduced coords] 
# omega [eV]    RE(eps(q=1)) IM(eps(q=1) RE(eps(q=2) ) ... DOS   IDOS
  0.000   54.7775    0.1283   54.7664    0.1549   54.7726    0.1531   54.7676    0.1168   54.8131    0.1577   54.8107    0.1607    0.0000    0.0000
  0.010   54.7781    0.1308   54.7669    0.1574   54.7732    0.1556   54.7682    0.1192   54.8136    0.1603   54.8113    0.1633    0.0000    0.0000
  0.020   54.7797    0.1332   54.7685    0.1600   54.7748    0.1581   54.7698    0.1217   54.8152    0.1629   54.8129    0.1660    0.0000    0.0000
  0.030   54.7824    0.1356   54.7712    0.1625   54.7775    0.1607   54.7725    0.1242   54.8179    0.1656   54.8156    0.1686    0.0000    0.0000
  0.040   54.7861    0.1381   54.7749    0.1650   54.7812    0.1632   54.7762    0.1267   54.8217    0.1682   54.8193    0.1713    0.0000    0.0000
  0.050   54.7909    0.1406   54.7797    0.1676   54.7860    0.1657   54.7810    0.1292   54.8265    0.1709   54.8241    0.1739    0.0000    0.0000
  0.060   54.7968    0.1430   54.7855    0.1701   54.7919    0.1683   54.7869    0.1317   54.8323    0.1736   54.8300    0.1766    0.0000    0.0000
  0.070   54.8038    0.1455   54.7925    0.1727   54.7989    0.1709   54.7939    0.1342   54.8393    0.1762   54.8370    0.1793    0.0000    0.0000
  0.080   54.8118    0.1480   54.8005    0.1752   54.8069    0.1734   54.8019    0.1367   54.8473    0.1789   54.8450    0.1820    0.0000    0.0000
  0.090   54.8209    0.1505   54.8096    0.1778   54.8160    0.1760   54.8110    0.1392   54.8564    0.1816   54.8541    0.1847    0.0000    0.0000
  0.100   54.8311    0.1530   54.8197    0.1804   54.8262    0.1786   54.8211    0.1418   54.8666    0.1844   54.8643    0.1874    0.0000    0.0000
  0.110   54.8423    0.1555   54.8309    0.1830   54.8374    0.1812   54.8324    0.1443   54.8779    0.1871   54.8755    0.1901    0.0000    0.0000
  0.120   54.8546    0.1580   54.8432    0.1856   54.8498    0.1839   54.8447    0.1469   54.8902    0.1898   54.8879    0.1928    0.0000    0.0000
  0.130   54.8680    0.1606   54.8566    0.1883   54.8632    0.1865   54.8581    0.1495   54.9036    0.1926   54.9013    0.1956    0.0000    0.0000
  0.140   54.8825    0.1631   54.8711    0.1909   54.8776    0.1891   54.8726    0.1520   54.9181    0.1954   54.9158    0.1983    0.0000    0.0000
  0.150   54.8981    0.1657   54.8866    0.1936   54.8932    0.1918   54.8881    0.1546   54.9337    0.1981   54.9314    0.2011    0.0000    0.0000
  0.160   54.9147    0.1683   54.9032    0.1962   54.9098    0.1945   54.9048    0.1572   54.9503    0.2009   54.9480    0.2039    0.0000    0.0000
  0.170   54.9324    0.1709   54.9209    0.1989   54.9275    0.1972   54.9225    0.1599   54.9681    0.2037   54.9658    0.2067    0.0000    0.0000
  0.180   54.9512    0.1735   54.9397    0.2016   54.9464    0.1999   54.9413    0.1625   54.9869    0.2066   54.9846    0.2095    0.0000    0.0000
  0.190   54.9711    0.1761   54.9596    0.2043   54.9663    0.2026   54.9612    0.1651   55.0068    0.2094   55.0045    0.2124    0.0000    0.0000
  0.200   54.9921    0.1787   54.9805    0.2071   54.9872    0.2053   54.9822    0.1678   55.0278    0.2122   55.0256    0.2152    0.0000    0.0000
  0.210   55.0142    0.1813   55.0026    0.2098   55.0093    0.2080   55.0042    0.1704   55.0499    0.2151   55.0477    0.2181    0.0000    0.0000
  0.220   55.0374    0.1840   55.0258    0.2126   55.0325    0.2108   55.0274    0.1731   55.0732    0.2180   55.0709    0.2210    0.0000    0.0000
  0.230   55.0617    0.1866   55.0500    0.2153   55.0568    0.2136   55.0517    0.1758   55.0975    0.2209   55.0952    0.2238    0.0000    0.0000
  0.240   55.0871    0.1893   55.0754    0.2181   55.0822    0.2164   55.0771    0.1785   55.1229    0.2238   55.1206    0.2268    0.0000    0.0000
  0.250   55.1135    0.1920   55.1018    0.2209   55.1087    0.2192   55.1036    0.1812   55.1494    0.2267   55.1472    0.2297    0.0000    0.0000
  0.260   55.1412    0.1947   55.1294    0.2237   55.1363    0.2220   55.1312    0.1840   55.1771    0.2297   55.1748    0.2326    0.0000    0.0000
  0.270   55.1699    0.1974   55.1581    0.2266   55.1650    0.2248   55.1599    0.1867   55.2058    0.2327   55.2036    0.2356    0.0000    0.0000
  0.280   55.1997    0.2002   55.1879    0.2294   55.1948    0.2277   55.1897    0.1895   55.2357    0.2356   55.2334    0.2386    0.0000    0.0000
  0.290   55.2306    0.2029   55.2188    0.2323   55.2257    0.2305   55.2206    0.1923   55.2667    0.2386   55.2644    0.2416    0.0000    0.0000
  0.300   55.2627    0.2057   55.2509    0.2352   55.2578    0.2334   55.2527    0.1950   55.2988    0.2417   55.2966    0.2446    0.0000    0.0000
  0.310   55.2959    0.2085   55.2840    0.2381   55.2910    0.2363   55.2859    0.1979   55.3321    0.2447   55.3298    0.2476    0.0000    0.0000
  0.320   55.3303    0.2113   55.3183    0.2410   55.3254    0.2393   55.3202    0.2007   55.3665    0.2478   55.3642    0.2507    0.0000    0.0000
  0.330   55.3657    0.2141   55.3538    0.2440   55.3608    0.2422   55.3557    0.2035   55.4020    0.2508   55.3997    0.2538    0.0000    0.0000
  0.340   55.4024    0.2170   55.3904    0.2469   55.3974    0.2452   55.3923    0.2064   55.4387    0.2539   55.4364    0.2569    0.0000    0.0000
  0.350   55.4401    0.2198   55.4281    0.2499   55.4352    0.2482   55.4301    0.2093   55.4765    0.2571   55.4742    0.2600    0.0000    0.0000
  0.360   55.4790    0.2227   55.4670    0.2529   55.4741    0.2512   55.4690    0.2122   55.5154    0.2602   55.5132    0.2631    0.0000    0.0000
  0.370   55.5191    0.2256   55.5070    0.2560   55.5142    0.2542   55.5090    0.2151   55.5556    0.2634   55.5534    0.2663    0.0000    0.0000
  0.380   55.5603    0.2285   55.5482    0.2590   55.5554    0.2573   55.5503    0.2181   55.5969    0.2666   55.5947    0.2695    0.0000    0.0000
  0.390   55.6027    0.2315   55.5906    0.2621   55.5978    0.2603   55.5927    0.2210   55.6393    0.2698   55.6371    0.2727    0.0000    0.0000
  0.400   55.6463    0.2344   55.6341    0.2652   55.6413    0.2634   55.6362    0.2240   55.6830    0.2730   55.6808    0.2759    0.0000    0.0000
  0.410   55.6911    0.2374   55.6788    0.2683   55.6861    0.2666   55.6810    0.2270   55.7278    0.2763   55.7256    0.2792    0.0000    0.0000
  0.420   55.7370    0.2404   55.7247    0.2714   55.7320    0.2697   55.7269    0.2300   55.7738    0.2796   55.7716    0.2825    0.0000    0.0000
  0.430   55.7841    0.2434   55.7718    0.2746   55.7791    0.2729   55.7740    0.2331   55.8210    0.2829   55.8188    0.2858    0.0000    0.0000
  0.440   55.8324    0.2465   55.8201    0.2778   55.8274    0.2760   55.8223    0.2361   55.8694    0.2862   55.8672    0.2891    0.0000    0.0000
  0.450   55.8820    0.2496   55.8696    0.2810   55.8769    0.2793   55.8718    0.2392   55.9190    0.2895   55.9168    0.2924    0.0000    0.0000
  0.460   55.9327    0.2526   55.9202    0.2842   55.9277    0.2825   55.9225    0.2423   55.9698    0.2929   55.9676    0.2958    0.0000    0.0000
  0.470   55.9846    0.2558   55.9722    0.2875   55.9796    0.2858   55.9745    0.2455   56.0218    0.2963   56.0196    0.2992    0.0000    0.0000
  0.480   56.0378    0.2589   56.0253    0.2908   56.0327    0.2891   56.0276    0.2486   56.0751    0.2998   56.0729    0.3027    0.0000    0.0000
  0.490   56.0922    0.2621   56.0796    0.2941   56.0871    0.2924   56.0820    0.2518   56.1296    0.3032   56.1274    0.3061    0.0000    0.0000
  0.500   56.1478    0.2653   56.1352    0.2974   56.1428    0.2957   56.1376    0.2550   56.1853    0.3067   56.1831    0.3096    0.0000    0.0000
  0.510   56.2047    0.2685   56.1921    0.3008   56.1996    0.2991   56.1945    0.2582   56.2423    0.3103   56.2401    0.3131    0.0000    0.0000
  0.520   56.2628    0.2717   56.2501    0.3042   56.2577    0.3025   56.2526    0.2615   56.3005    0.3138   56.2983    0.3167    0.0000    0.0000
  0.530   56.3222    0.2750   56.3095    0.3076   56.3171    0.3059   56.3120    0.2648   56.3600    0.3174   56.3578    0.3203    0.0000    0.0000
  0.540   56.3829    0.2783   56.3701    0.3111   56.3778    0.3094   56.3726    0.2681   56.4207    0.3210   56.4186    0.3239    0.0000    0.0000
  0.550   56.4448    0.2816   56.4320    0.3146   56.4397    0.3129   56.4346    0.2714   56.4828    0.3246   56.4806    0.3275    0.0000    0.0000
  0.560   56.5080    0.2849   56.4952    0.3181   56.5029    0.3164   56.4978    0.2748   56.5461    0.3283   56.5439    0.3312    0.0000    0.0000
  0.570   56.5725    0.2883   56.5596    0.3216   56.5674    0.3199   56.5623    0.2782   56.6107    0.3320   56.6085    0.3349    0.0000    0.0000
  0.580   56.6384    0.2917   56.6254    0.3252   56.6332    0.3235   56.6281    0.2816   56.6766    0.3358   56.6745    0.3386    0.0000    0.0000
  0.590   56.7055    0.2952   56.6925    0.3288   56.7003    0.3271   56.6952    0.2851   56.7439    0.3395   56.7417    0.3424    0.0000    0.0000
  0.600   56.7739    0.2986   56.7609    0.3325   56.7687    0.3307   56.7636    0.2886   56.8124    0.3433   56.8103    0.3462    0.0000    0.0000
  0.610   56.8437    0.3021   56.8306    0.3361   56.8385    0.3344   56.8334    0.2921   56.8823    0.3472   56.8802    0.3500    0.0000    0.0000
  0.620   56.9148    0.3057   56.9016    0.3398   56.9096    0.3381   56.9045    0.2956   56.9536    0.3511   56.9514    0.3539    0.0000    0.0000
  0.630   56.9873    0.3092   56.9741    0.3436   56.9820    0.3419   56.9769    0.2992   57.0262    0.3550   57.0240    0.3578    0.0000    0.0000
  0.640   57.0611    0.3128   57.0478    0.3474   57.0558    0.3457   57.0507    0.3028   57.1001    0.3589   57.0979    0.3618    0.0000    0.0000
  0.650   57.1363    0.3165   57.1230    0.3512   57.1310    0.3495   57.1259    0.3065   57.1754    0.3629   57.1733    0.3658    0.0000    0.0000
  0.660   57.2129    0.3201   57.1995    0.3550   57.2076    0.3533   57.2025    0.3101   57.2521    0.3669   57.2500    0.3698    0.0000    0.0000
  0.670   57.2908    0.3238   57.2774    0.3589   57.2855    0.3572   57.2804    0.3139   57.3302    0.3710   57.3281    0.3738    0.0000    0.0000
  0.680   57.3702    0.3276   57.3567    0.3628   57.3648    0.3611   57.3598    0.3176   57.4097    0.3751   57.4076    0.3779    0.0000    0.0000
  0.690   57.4510    0.3313   57.4374    0.3668   57.4456    0.3651   57.4406    0.3214   57.4907    0.3792   57.4885    0.3821    0.0000    0.0000
  0.700   57.5332    0.3351   57.5196    0.3708   57.5278    0.3691   57.5228    0.3252   57.5730    0.3834   57.5709    0.3863    0.0000    0.0000
  0.710   57.6168    0.3390   57.6032    0.3749   57.6114    0.3732   57.6064    0.3291   57.6568    0.3877   57.6546    0.3905    0.0000    0.0000
  0.720   57.7019    0.3429   57.6882    0.3789   57.6965    0.3773   57.6915    0.3330   57.7421    0.3919   57.7399    0.3948    0.0000    0.0000
  0.730   57.7885    0.3468   57.7747    0.3831   57.7830    0.3814   57.7780    0.3369   57.8288    0.3962   57.8266    0.3991    0.0000    0.0000
  0.740   57.8765    0.3508   57.8627    0.3872   57.8710    0.3855   57.8660    0.3409   57.9170    0.4006   57.9148    0.4034    0.0000    0.0000
  0.750   57.9660    0.3548   57.9521    0.3915   57.9605    0.3898   57.9555    0.3449   58.0066    0.4050   58.0045    0.4078    0.0000    0.0000
  0.760   58.0571    0.3588   58.0431    0.3957   58.0515    0.3940   58.0465    0.3490   58.0978    0.4094   58.0957    0.4123    0.0000    0.0000
  0.770   58.1496    0.3629   58.1356    0.4000   58.1440    0.3983   58.1391    0.3531   58.1905    0.4139   58.1884    0.4168    0.0000    0.0000
  0.780   58.2437    0.3670   58.2296    0.4044   58.2381    0.4027   58.2331    0.3572   58.2848    0.4185   58.2826    0.4213    0.0000    0.0000
  0.790   58.3393    0.3712   58.3251    0.4088   58.3337    0.4071   58.3287    0.3614   58.3805    0.4231   58.3784    0.4259    0.0000    0.0000
  0.800   58.4364    0.3754   58.4222    0.4132   58.4308    0.4115   58.4259    0.3656   58.4779    0.4277   58.4757    0.4305    0.0000    0.0000
  0.810   58.5352    0.3797   58.5209    0.4177   58.5295    0.4160   58.5246    0.3699   58.5768    0.4324   58.5746    0.4352    0.0000    0.0000
  0.820   58.6355    0.3840   58.6211    0.4222   58.6298    0.4205   58.6249    0.3742   58.6773    0.4371   58.6751    0.4400    0.0000    0.0000
  0.830   58.7374    0.3883   58.7230    0.4268   58.7317    0.4251   58.7268    0.3786   58.7794    0.4419   58.7772    0.4448    0.0000    0.0000
  0.840   58.8410    0.3927   58.8264    0.4315   58.8352    0.4298   58.8303    0.3830   58.8831    0.4468   58.8810    0.4496    0.0000    0.0000
  0.850   58.9461    0.3972   58.9315    0.4361   58.9404    0.4345   58.9355    0.3875   58.9885    0.4517   58.9863    0.4545    0.0000    0.0000
  0.860   59.0530    0.4017   59.0383    0.4409   59.0472    0.4392   59.0423    0.3920   59.0955    0.4566   59.0934    0.4595    0.0000    0.0000
  0.870   59.1615    0.4062   59.1467    0.4457   59.1556    0.4440   59.1508    0.3965   59.2042    0.4616   59.2021    0.4645    0.0000    0.0000
  0.880   59.2716    0.4108   59.2568    0.4505   59.2658    0.4489   59.2609    0.4012   59.3146    0.4667   59.3124    0.4695    0.0000    0.0000
  0.890   59.3835    0.4155   59.3686    0.4554   59.3776    0.4538   59.3728    0.4058   59.4267    0.4718   59.4245    0.4747    0.0000    0.0000
  0.900   59.4971    0.4202   59.4822    0.4604   59.4912    0.4587   59.4864    0.4106   59.5405    0.4770   59.5383    0.4799    0.0000    0.0000
  0.910   59.6125    0.4250   59.5974    0.4654   59.6065    0.4638   59.6017    0.4153   59.6561    0.4823   59.6539    0.4851    0.0000    0.0000
  0.920   59.7296    0.4298   59.7144    0.4705   59.7236    0.4688   59.7188    0.4202   59.7734    0.4876   59.7712    0.4904    0.0000    0.0000
  0.930   59.8484    0.4347   59.8332    0.4757   59.8424    0.4740   59.8377    0.4251   59.8925    0.4930   59.8903    0.4958    0.0000    0.0000
  0.940   59.9691    0.4396   59.9538    0.4809   59.9631    0.4792   59.9583    0.4300   60.0134    0.4984   60.0112    0.5012    0.0000    0.0000
  0.950   60.0916    0.4446   60.0762    0.4861   60.0855    0.4845   60.0808    0.4350   60.1361    0.5039   60.1339    0.5067    0.0000    0.0000
  0.960   60.2159    0.4497   60.2004    0.4915   60.2098    0.4898   60.2051    0.4401   60.2606    0.5095   60.2585    0.5123    0.0000    0.0000
  0.970   60.3421    0.4548   60.3265    0.4969   60.3359    0.4952   60.3312    0.4452   60.3870    0.5151   60.3849    0.5179    0.0000    0.0000
  0.980   60.4701    0.4600   60.4545    0.5023   60.4639    0.5007   60.4593    0.4504   60.5153    0.5208   60.5132    0.5236    0.0000    0.0000
  0.990   60.6001    0.4652   60.5844    0.5079   60.5938    0.5062   60.5892    0.4557   60.6455    0.5266   60.6434    0.5294    0.0000    0.0000
  1.000   60.7319    0.4705   60.7161    0.5135   60.7257    0.5118   60.7211    0.4610   60.7776    0.5325   60.7755    0.5353    0.0000    0.0000
  1.010   60.8658    0.4759   60.8499    0.5192   60.8595    0.5175   60.8549    0.4664   60.9117    0.5384   60.9095    0.5412    0.0000    0.0000
  1.020   61.0015    0.4813   60.9855    0.5249   60.9952    0.5232   60.9906    0.4719   61.0477    0.5444   61.0456    0.5472    0.0000    0.0000
  1.030   61.1393    0.4868   61.1232    0.5307   61.1329    0.5290   61.1284    0.4774   61.1858    0.5505   61.1836    0.5533    0.0000    0.0000
  1.040   61.2791    0.4924   61.2629    0.5366   61.2727    0.5349   61.2682    0.4830   61.3258    0.5566   61.3237    0.5594    0.0000    0.0000
  1.050   61.4209    0.4981   61.4046    0.5426   61.4144    0.5409   61.4100    0.4887   61.4679    0.5629   61.4658    0.5657    0.0000    0.0000
  1.060   61.5648    0.5038   61.5484    0.5486   61.5583    0.5470   61.5538    0.4944   61.6121    0.5692   61.6099    0.5720    0.0000    0.0000
  1.070   61.7108    0.5096   61.6943    0.5548   61.7042    0.5531   61.6998    0.5002   61.7584    0.5756   61.7562    0.5784    0.0000    0.0000
  1.080   61.8589    0.5155   61.8423    0.5610   61.8523    0.5593   61.8479    0.5061   61.9067    0.5821   61.9046    0.5849    0.0000    0.0000
  1.090   62.0091    0.5215   61.9924    0.5673   62.0025    0.5656   61.9981    0.5121   62.0573    0.5887   62.0551    0.5915    0.0000    0.0000
  1.100   62.1615    0.5275   62.1447    0.5736   62.1548    0.5720   62.1505    0.5182   62.2100    0.5953   62.2078    0.5981    0.0000    0.0000
  1.110   62.3161    0.5336   62.2992    0.5801   62.3094    0.5784   62.3051    0.5243   62.3649    0.6021   62.3627    0.6049    0.0000    0.0000
  1.120   62.4729    0.5398   62.4559    0.5867   62.4662    0.5850   62.4619    0.5305   62.5220    0.6089   62.5198    0.6117    0.0000    0.0000
  1.130   62.6320    0.5461   62.6149    0.5933   62.6252    0.5916   62.6209    0.5368   62.6814    0.6159   62.6792    0.6187    0.0000    0.0000
  1.140   62.7934    0.5525   62.7762    0.6000   62.7865    0.5984   62.7823    0.5432   62.8431    0.6229   62.8409    0.6257    0.0000    0.0000
  1.150   62.9571    0.5590   62.9397    0.6069   62.9501    0.6052   62.9460    0.5497   63.0071    0.6301   63.0049    0.6328    0.0000    0.0000
  1.160   63.1231    0.5655   63.1057    0.6138   63.1161    0.6121   63.1120    0.5563   63.1735    0.6373   63.1713    0.6401    0.0000    0.0000
  1.170   63.2915    0.5722   63.2740    0.6208   63.2845    0.6191   63.2804    0.5630   63.3422    0.6446   63.3401    0.6474    0.0000    0.0000
  1.180   63.4623    0.5789   63.4447    0.6279   63.4553    0.6263   63.4512    0.5697   63.5134    0.6521   63.5112    0.6549    0.0000    0.0000
  1.190   63.6356    0.5858   63.6178    0.6352   63.6285    0.6335   63.6245    0.5766   63.6870    0.6596   63.6848    0.6624    0.0000    0.0000
  1.200   63.8114    0.5927   63.7934    0.6425   63.8042    0.6408   63.8002    0.5836   63.8631    0.6673   63.8609    0.6701    0.0000    0.0000
  1.210   63.9896    0.5998   63.9716    0.6499   63.9824    0.6482   63.9784    0.5906   64.0417    0.6750   64.0396    0.6778    0.0000    0.0000
  1.220   64.1704    0.6069   64.1523    0.6575   64.1631    0.6558   64.1592    0.5978   64.2229    0.6829   64.2208    0.6857    0.0000    0.0000
  1.230   64.3538    0.6142   64.3355    0.6651   64.3465    0.6634   64.3426    0.6051   64.4067    0.6909   64.4045    0.6937    0.0000    0.0000
  1.240   64.5399    0.6215   64.5214    0.6729   64.5324    0.6712   64.5286    0.6124   64.5931    0.6990   64.5909    0.7018    0.0000    0.0000
  1.250   64.7285    0.6290   64.7100    0.6808   64.7210    0.6791   64.7173    0.6199   64.7822    0.7073   64.7800    0.7101    0.0000    0.0000
  1.260   64.9199    0.6366   64.9012    0.6888   64.9124    0.6871   64.9087    0.6275   64.9740    0.7156   64.9718    0.7184    0.0000    0.0000
  1.270   65.1141    0.6443   65.0952    0.6969   65.1064    0.6952   65.1028    0.6353   65.1685    0.7241   65.1663    0.7269    0.0000    0.0000
  1.280   65.3110    0.6521   65.2920    0.7052   65.3033    0.7035   65.2997    0.6431   65.3658    0.7328   65.3636    0.7355    0.0000    0.0000
