# Macroscopic dielectric function obtained with the BS equation.
#  RPA L0 with KS energies and KS wavefunctions     LOCAL FIELD EFFECTS INCLUDED
# RESONANT-ONLY calculation
# Coulomb term constructed with full W(G1,G2)
# Scissor operator energy =  0.8000 [eV]
# nstates included in the diagonalization = 96
# npweps  = 113
# npwwfn  = 259
# nbands  = 8
# loband  = 2
# nkibz   = 3
# nkbz    = 8
# Lorentzian broadening =  0.0000 [eV]
# List of q-points for the optical limit:
# q =  0.938821, 0.000000, 0.000000, [Reduced coords] 
# q =  0.000000, 0.938821, 0.000000, [Reduced coords] 
# q =  0.000000, 0.000000, 0.938821, [Reduced coords] 
# q =  0.000000, 0.813043, 0.813043, [Reduced coords] 
# q =  0.813043, 0.000000, 0.813043, [Reduced coords] 
# q =  0.813043, 0.813043, 0.000000, [Reduced coords] 
# omega [eV]    RE(eps(q=1)) IM(eps(q=1) RE(eps(q=2) ) ... DOS   IDOS
  0.000   54.7807    0.5210   54.7669    0.5609   54.7769    0.5596   54.7706    0.5141   54.8146    0.5828   54.8126    0.5848    0.0000    0.0000
  0.010   54.7812    0.5210   54.7674    0.5609   54.7774    0.5596   54.7711    0.5141   54.8151    0.5828   54.8132    0.5848    0.0000    0.0000
  0.020   54.7828    0.5211   54.7690    0.5610   54.7790    0.5596   54.7727    0.5142   54.8168    0.5828   54.8148    0.5849    0.0000    0.0000
  0.030   54.7855    0.5212   54.7717    0.5610   54.7817    0.5597   54.7754    0.5142   54.8194    0.5829   54.8174    0.5850    0.0000    0.0000
  0.040   54.7892    0.5213   54.7754    0.5611   54.7854    0.5598   54.7792    0.5143   54.8232    0.5830   54.8212    0.5851    0.0000    0.0000
  0.050   54.7940    0.5214   54.7802    0.5613   54.7902    0.5600   54.7840    0.5145   54.8280    0.5832   54.8260    0.5852    0.0000    0.0000
  0.060   54.7999    0.5216   54.7861    0.5615   54.7961    0.5602   54.7898    0.5146   54.8339    0.5834   54.8319    0.5854    0.0000    0.0000
  0.070   54.8068    0.5218   54.7930    0.5617   54.8031    0.5604   54.7968    0.5148   54.8408    0.5836   54.8388    0.5856    0.0000    0.0000
  0.080   54.8149    0.5220   54.8010    0.5619   54.8111    0.5606   54.8048    0.5151   54.8489    0.5838   54.8469    0.5859    0.0000    0.0000
  0.090   54.8239    0.5222   54.8101    0.5622   54.8202    0.5609   54.8139    0.5153   54.8580    0.5841   54.8560    0.5862    0.0000    0.0000
  0.100   54.8341    0.5225   54.8203    0.5625   54.8303    0.5612   54.8240    0.5156   54.8681    0.5844   54.8661    0.5865    0.0000    0.0000
  0.110   54.8453    0.5228   54.8315    0.5628   54.8416    0.5615   54.8353    0.5159   54.8794    0.5848   54.8774    0.5868    0.0000    0.0000
  0.120   54.8577    0.5232   54.8438    0.5632   54.8539    0.5619   54.8476    0.5163   54.8917    0.5852   54.8897    0.5872    0.0000    0.0000
  0.130   54.8710    0.5236   54.8572    0.5636   54.8672    0.5623   54.8610    0.5166   54.9051    0.5856   54.9031    0.5876    0.0000    0.0000
  0.140   54.8855    0.5240   54.8717    0.5640   54.8817    0.5627   54.8754    0.5170   54.9196    0.5860   54.9176    0.5881    0.0000    0.0000
  0.150   54.9011    0.5244   54.8872    0.5645   54.8973    0.5632   54.8910    0.5175   54.9352    0.5865   54.9332    0.5886    0.0000    0.0000
  0.160   54.9177    0.5249   54.9038    0.5650   54.9139    0.5637   54.9076    0.5180   54.9519    0.5870   54.9499    0.5891    0.0000    0.0000
  0.170   54.9354    0.5254   54.9215    0.5655   54.9316    0.5642   54.9253    0.5185   54.9696    0.5876   54.9676    0.5896    0.0000    0.0000
  0.180   54.9542    0.5259   54.9403    0.5661   54.9504    0.5648   54.9441    0.5190   54.9884    0.5882   54.9864    0.5902    0.0000    0.0000
  0.190   54.9741    0.5265   54.9602    0.5667   54.9703    0.5654   54.9640    0.5195   55.0084    0.5888   55.0064    0.5909    0.0000    0.0000
  0.200   54.9951    0.5271   54.9812    0.5673   54.9913    0.5660   54.9850    0.5201   55.0294    0.5895   55.0274    0.5915    0.0000    0.0000
  0.210   55.0172    0.5277   55.0032    0.5680   55.0133    0.5667   55.0070    0.5208   55.0515    0.5902   55.0495    0.5922    0.0000    0.0000
  0.220   55.0403    0.5284   55.0264    0.5687   55.0365    0.5674   55.0302    0.5214   55.0747    0.5909   55.0727    0.5929    0.0000    0.0000
  0.230   55.0646    0.5290   55.0506    0.5694   55.0608    0.5681   55.0545    0.5221   55.0990    0.5917   55.0970    0.5937    0.0000    0.0000
  0.240   55.0900    0.5298   55.0760    0.5702   55.0861    0.5689   55.0799    0.5228   55.1245    0.5925   55.1225    0.5945    0.0000    0.0000
  0.250   55.1165    0.5305   55.1025    0.5710   55.1126    0.5697   55.1063    0.5236   55.1510    0.5933   55.1490    0.5953    0.0000    0.0000
  0.260   55.1441    0.5313   55.1300    0.5718   55.1402    0.5705   55.1339    0.5243   55.1786    0.5942   55.1766    0.5962    0.0000    0.0000
  0.270   55.1728    0.5321   55.1587    0.5727   55.1689    0.5714   55.1626    0.5252   55.2074    0.5951   55.2054    0.5971    0.0000    0.0000
  0.280   55.2026    0.5330   55.1885    0.5736   55.1987    0.5723   55.1924    0.5260   55.2373    0.5960   55.2353    0.5981    0.0000    0.0000
  0.290   55.2335    0.5338   55.2195    0.5745   55.2296    0.5732   55.2234    0.5269   55.2683    0.5970   55.2662    0.5990    0.0000    0.0000
  0.300   55.2656    0.5348   55.2515    0.5755   55.2617    0.5742   55.2554    0.5278   55.3004    0.5980   55.2984    0.6000    0.0000    0.0000
  0.310   55.2988    0.5357   55.2847    0.5765   55.2949    0.5752   55.2886    0.5287   55.3336    0.5990   55.3316    0.6011    0.0000    0.0000
  0.320   55.3331    0.5367   55.3190    0.5775   55.3292    0.5762   55.3230    0.5297   55.3680    0.6001   55.3660    0.6022    0.0000    0.0000
  0.330   55.3686    0.5377   55.3544    0.5786   55.3647    0.5773   55.3584    0.5307   55.4035    0.6013   55.4015    0.6033    0.0000    0.0000
  0.340   55.4052    0.5387   55.3910    0.5797   55.4013    0.5784   55.3950    0.5318   55.4402    0.6024   55.4382    0.6045    0.0000    0.0000
  0.350   55.4430    0.5398   55.4288    0.5809   55.4390    0.5796   55.4328    0.5328   55.4780    0.6036   55.4760    0.6057    0.0000    0.0000
  0.360   55.4819    0.5409   55.4677    0.5821   55.4779    0.5807   55.4717    0.5339   55.5170    0.6048   55.5150    0.6069    0.0000    0.0000
  0.370   55.5219    0.5421   55.5077    0.5833   55.5179    0.5820   55.5117    0.5351   55.5571    0.6061   55.5551    0.6082    0.0000    0.0000
  0.380   55.5631    0.5433   55.5489    0.5845   55.5592    0.5832   55.5529    0.5363   55.5984    0.6074   55.5964    0.6095    0.0000    0.0000
  0.390   55.6055    0.5445   55.5913    0.5858   55.6015    0.5845   55.5953    0.5375   55.6409    0.6088   55.6389    0.6108    0.0000    0.0000
  0.400   55.6491    0.5457   55.6348    0.5872   55.6451    0.5858   55.6389    0.5387   55.6845    0.6102   55.6825    0.6122    0.0000    0.0000
  0.410   55.6938    0.5470   55.6795    0.5885   55.6898    0.5872   55.6836    0.5400   55.7294    0.6116   55.7273    0.6136    0.0000    0.0000
  0.420   55.7398    0.5483   55.7254    0.5899   55.7357    0.5886   55.7295    0.5413   55.7754    0.6131   55.7734    0.6151    0.0000    0.0000
  0.430   55.7869    0.5497   55.7725    0.5914   55.7828    0.5900   55.7766    0.5427   55.8226    0.6146   55.8205    0.6166    0.0000    0.0000
  0.440   55.8352    0.5511   55.8208    0.5929   55.8311    0.5915   55.8249    0.5441   55.8710    0.6161   55.8689    0.6182    0.0000    0.0000
  0.450   55.8847    0.5525   55.8703    0.5944   55.8806    0.5930   55.8744    0.5455   55.9206    0.6177   55.9185    0.6198    0.0000    0.0000
  0.460   55.9354    0.5540   55.9209    0.5959   55.9313    0.5946   55.9251    0.5470   55.9714    0.6193   55.9694    0.6214    0.0000    0.0000
  0.470   55.9874    0.5555   55.9729    0.5975   55.9833    0.5962   55.9771    0.5485   56.0234    0.6210   56.0214    0.6231    0.0000    0.0000
  0.480   56.0405    0.5570   56.0260    0.5992   56.0364    0.5978   56.0302    0.5500   56.0767    0.6227   56.0746    0.6248    0.0000    0.0000
  0.490   56.0949    0.5586   56.0803    0.6008   56.0908    0.5995   56.0846    0.5516   56.1311    0.6244   56.1291    0.6265    0.0000    0.0000
  0.500   56.1505    0.5602   56.1359    0.6026   56.1464    0.6012   56.1402    0.5532   56.1869    0.6262   56.1848    0.6283    0.0000    0.0000
  0.510   56.2074    0.5619   56.1928    0.6043   56.2032    0.6030   56.1971    0.5548   56.2438    0.6281   56.2418    0.6301    0.0000    0.0000
  0.520   56.2655    0.5636   56.2509    0.6061   56.2613    0.6048   56.2552    0.5565   56.3021    0.6299   56.3000    0.6320    0.0000    0.0000
  0.530   56.3249    0.5653   56.3102    0.6080   56.3207    0.6066   56.3146    0.5583   56.3616    0.6319   56.3595    0.6339    0.0000    0.0000
  0.540   56.3855    0.5671   56.3708    0.6098   56.3813    0.6085   56.3752    0.5600   56.4223    0.6338   56.4203    0.6359    0.0000    0.0000
  0.550   56.4475    0.5689   56.4327    0.6118   56.4433    0.6104   56.4371    0.5618   56.4843    0.6358   56.4823    0.6379    0.0000    0.0000
  0.560   56.5107    0.5707   56.4959    0.6137   56.5064    0.6124   56.5003    0.5637   56.5477    0.6379   56.5456    0.6400    0.0000    0.0000
  0.570   56.5752    0.5726   56.5603    0.6158   56.5709    0.6144   56.5648    0.5656   56.6123    0.6400   56.6103    0.6421    0.0000    0.0000
  0.580   56.6410    0.5745   56.6261    0.6178   56.6367    0.6165   56.6306    0.5675   56.6782    0.6421   56.6762    0.6442    0.0000    0.0000
  0.590   56.7081    0.5765   56.6932    0.6199   56.7038    0.6186   56.6977    0.5695   56.7454    0.6443   56.7434    0.6464    0.0000    0.0000
  0.600   56.7765    0.5785   56.7616    0.6220   56.7722    0.6207   56.7661    0.5715   56.8140    0.6466   56.8120    0.6486    0.0000    0.0000
  0.610   56.8463    0.5806   56.8313    0.6242   56.8420    0.6229   56.8359    0.5735   56.8839    0.6488   56.8819    0.6509    0.0000    0.0000
  0.620   56.9174    0.5827   56.9024    0.6265   56.9131    0.6251   56.9070    0.5756   56.9551    0.6512   56.9531    0.6533    0.0000    0.0000
  0.630   56.9899    0.5848   56.9748    0.6288   56.9855    0.6274   56.9794    0.5778   57.0277    0.6536   57.0257    0.6556    0.0000    0.0000
  0.640   57.0637    0.5870   57.0486    0.6311   57.0593    0.6297   57.0532    0.5800   57.1017    0.6560   57.0996    0.6581    0.0000    0.0000
  0.650   57.1389    0.5893   57.1237    0.6335   57.1345    0.6321   57.1284    0.5822   57.1770    0.6585   57.1749    0.6606    0.0000    0.0000
  0.660   57.2154    0.5915   57.2002    0.6359   57.2110    0.6345   57.2049    0.5845   57.2537    0.6610   57.2516    0.6631    0.0000    0.0000
  0.670   57.2934    0.5939   57.2781    0.6383   57.2889    0.6370   57.2829    0.5868   57.3318    0.6636   57.3297    0.6657    0.0000    0.0000
  0.680   57.3728    0.5962   57.3574    0.6409   57.3683    0.6395   57.3622    0.5892   57.4113    0.6662   57.4092    0.6683    0.0000    0.0000
  0.690   57.4535    0.5986   57.4382    0.6434   57.4490    0.6421   57.4430    0.5916   57.4922    0.6689   57.4902    0.6710    0.0000    0.0000
  0.700   57.5357    0.6011   57.5203    0.6460   57.5312    0.6447   57.5252    0.5940   57.5746    0.6716   57.5725    0.6737    0.0000    0.0000
  0.710   57.6194    0.6036   57.6039    0.6487   57.6148    0.6474   57.6088    0.5965   57.6584    0.6744   57.6563    0.6765    0.0000    0.0000
  0.720   57.7045    0.6062   57.6889    0.6514   57.6999    0.6501   57.6939    0.5991   57.7436    0.6772   57.7415    0.6793    0.0000    0.0000
  0.730   57.7910    0.6088   57.7754    0.6542   57.7864    0.6528   57.7804    0.6017   57.8303    0.6801   57.8283    0.6822    0.0000    0.0000
  0.740   57.8790    0.6114   57.8634    0.6570   57.8744    0.6557   57.8684    0.6044   57.9185    0.6831   57.9164    0.6852    0.0000    0.0000
  0.750   57.9685    0.6142   57.9529    0.6599   57.9639    0.6585   57.9579    0.6071   58.0082    0.6861   58.0061    0.6882    0.0000    0.0000
  0.760   58.0596    0.6169   58.0438    0.6628   58.0549    0.6615   58.0489    0.6098   58.0994    0.6891   58.0973    0.6912    0.0000    0.0000
  0.770   58.1521    0.6197   58.1363    0.6658   58.1474    0.6645   58.1415    0.6126   58.1921    0.6922   58.1900    0.6944    0.0000    0.0000
  0.780   58.2461    0.6226   58.2303    0.6689   58.2414    0.6675   58.2355    0.6155   58.2863    0.6954   58.2842    0.6975    0.0000    0.0000
  0.790   58.3417    0.6255   58.3258    0.6720   58.3370    0.6706   58.3311    0.6184   58.3821    0.6987   58.3800    0.7008    0.0000    0.0000
  0.800   58.4389    0.6285   58.4229    0.6751   58.4341    0.6738   58.4282    0.6214   58.4794    0.7019   58.4773    0.7041    0.0000    0.0000
  0.810   58.5376    0.6315   58.5216    0.6783   58.5328    0.6770   58.5269    0.6244   58.5783    0.7053   58.5762    0.7074    0.0000    0.0000
  0.820   58.6379    0.6346   58.6219    0.6816   58.6331    0.6802   58.6272    0.6275   58.6788    0.7087   58.6767    0.7108    0.0000    0.0000
  0.830   58.7399    0.6377   58.7237    0.6849   58.7350    0.6836   58.7291    0.6306   58.7809    0.7122   58.7788    0.7143    0.0000    0.0000
  0.840   58.8434    0.6409   58.8272    0.6883   58.8385    0.6870   58.8327    0.6338   58.8847    0.7157   58.8826    0.7178    0.0000    0.0000
  0.850   58.9486    0.6442   58.9323    0.6918   58.9436    0.6904   58.9378    0.6370   58.9900    0.7193   58.9879    0.7214    0.0000    0.0000
  0.860   59.0554    0.6475   59.0390    0.6953   59.0504    0.6939   59.0446    0.6404   59.0970    0.7230   59.0950    0.7251    0.0000    0.0000
  0.870   59.1639    0.6508   59.1475    0.6989   59.1589    0.6975   59.1531    0.6437   59.2057    0.7267   59.2036    0.7289    0.0000    0.0000
  0.880   59.2740    0.6543   59.2576    0.7025   59.2690    0.7011   59.2633    0.6472   59.3161    0.7305   59.3140    0.7327    0.0000    0.0000
  0.890   59.3859    0.6578   59.3694    0.7062   59.3808    0.7048   59.3751    0.6506   59.4282    0.7344   59.4261    0.7365    0.0000    0.0000
  0.900   59.4995    0.6613   59.4829    0.7100   59.4944    0.7086   59.4887    0.6542   59.5420    0.7383   59.5399    0.7405    0.0000    0.0000
  0.910   59.6148    0.6649   59.5982    0.7138   59.6097    0.7124   59.6040    0.6578   59.6576    0.7424   59.6555    0.7445    0.0000    0.0000
  0.920   59.7319    0.6686   59.7152    0.7177   59.7268    0.7163   59.7211    0.6615   59.7749    0.7464   59.7728    0.7486    0.0000    0.0000
  0.930   59.8508    0.6724   59.8340    0.7217   59.8456    0.7203   59.8399    0.6652   59.8940    0.7506   59.8919    0.7527    0.0000    0.0000
  0.940   59.9715    0.6762   59.9546    0.7258   59.9662    0.7244   59.9606    0.6690   60.0149    0.7548   60.0128    0.7569    0.0000    0.0000
  0.950   60.0939    0.6801   60.0770    0.7299   60.0886    0.7285   60.0830    0.6729   60.1376    0.7591   60.1355    0.7612    0.0000    0.0000
  0.960   60.2182    0.6840   60.2012    0.7341   60.2129    0.7327   60.2073    0.6769   60.2621    0.7635   60.2600    0.7656    0.0000    0.0000
  0.970   60.3444    0.6880   60.3273    0.7383   60.3390    0.7369   60.3335    0.6809   60.3885    0.7679   60.3864    0.7701    0.0000    0.0000
  0.980   60.4725    0.6921   60.4552    0.7427   60.4670    0.7413   60.4615    0.6850   60.5168    0.7725   60.5147    0.7746    0.0000    0.0000
  0.990   60.6024    0.6963   60.5851    0.7471   60.5969    0.7457   60.5914    0.6891   60.6470    0.7771   60.6449    0.7792    0.0000    0.0000
  1.000   60.7343    0.7005   60.7169    0.7516   60.7288    0.7502   60.7233    0.6934   60.7791    0.7818   60.7770    0.7839    0.0000    0.0000
  1.010   60.8681    0.7048   60.8506    0.7561   60.8625    0.7547   60.8571    0.6977   60.9132    0.7865   60.9111    0.7887    0.0000    0.0000
  1.020   61.0038    0.7092   60.9863    0.7608   60.9983    0.7594   60.9928    0.7021   61.0492    0.7914   61.0471    0.7935    0.0000    0.0000
  1.030   61.1416    0.7137   61.1240    0.7655   61.1360    0.7641   61.1306    0.7065   61.1873    0.7963   61.1852    0.7985    0.0000    0.0000
  1.040   61.2814    0.7182   61.2637    0.7703   61.2757    0.7689   61.2704    0.7111   61.3273    0.8014   61.3252    0.8035    0.0000    0.0000
  1.050   61.4232    0.7228   61.4054    0.7752   61.4175    0.7738   61.4122    0.7157   61.4694    0.8065   61.4673    0.8086    0.0000    0.0000
  1.060   61.5671    0.7275   61.5492    0.7802   61.5613    0.7788   61.5560    0.7204   61.6136    0.8117   61.6115    0.8138    0.0000    0.0000
  1.070   61.7130    0.7323   61.6950    0.7853   61.7072    0.7839   61.7020    0.7252   61.7598    0.8170   61.7577    0.8191    0.0000    0.0000
  1.080   61.8611    0.7372   61.8430    0.7904   61.8553    0.7890   61.8500    0.7301   61.9082    0.8224   61.9061    0.8245    0.0000    0.0000
  1.090   62.0114    0.7421   61.9932    0.7957   62.0055    0.7943   62.0003    0.7350   62.0587    0.8278   62.0566    0.8300    0.0000    0.0000
  1.100   62.1638    0.7472   62.1455    0.8010   62.1578    0.7996   62.1526    0.7400   62.2114    0.8334   62.2093    0.8356    0.0000    0.0000
  1.110   62.3183    0.7523   62.3000    0.8065   62.3124    0.8051   62.3072    0.7452   62.3663    0.8391   62.3642    0.8412    0.0000    0.0000
  1.120   62.4752    0.7575   62.4567    0.8120   62.4691    0.8106   62.4640    0.7504   62.5235    0.8449   62.5213    0.8470    0.0000    0.0000
  1.130   62.6342    0.7628   62.6157    0.8176   62.6282    0.8162   62.6231    0.7557   62.6829    0.8507   62.6807    0.8529    0.0000    0.0000
  1.140   62.7956    0.7682   62.7769    0.8234   62.7895    0.8219   62.7844    0.7611   62.8446    0.8567   62.8424    0.8589    0.0000    0.0000
  1.150   62.9593    0.7737   62.9405    0.8292   62.9531    0.8278   62.9481    0.7666   63.0086    0.8628   63.0064    0.8650    0.0000    0.0000
  1.160   63.1253    0.7793   63.1064    0.8351   63.1191    0.8337   63.1141    0.7722   63.1749    0.8690   63.1728    0.8712    0.0000    0.0000
  1.170   63.2937    0.7850   63.2747    0.8411   63.2874    0.8397   63.2825    0.7779   63.3437    0.8753   63.3415    0.8775    0.0000    0.0000
  1.180   63.4645    0.7908   63.4454    0.8473   63.4582    0.8459   63.4533    0.7837   63.5149    0.8817   63.5127    0.8839    0.0000    0.0000
  1.190   63.6378    0.7967   63.6186    0.8535   63.6314    0.8521   63.6266    0.7896   63.6885    0.8883   63.6863    0.8904    0.0000    0.0000
  1.200   63.8135    0.8027   63.7942    0.8599   63.8071    0.8585   63.8023    0.7957   63.8646    0.8949   63.8624    0.8971    0.0000    0.0000
  1.210   63.9918    0.8088   63.9723    0.8664   63.9853    0.8650   63.9805    0.8018   64.0432    0.9017   64.0410    0.9038    0.0000    0.0000
  1.220   64.1726    0.8150   64.1530    0.8730   64.1660    0.8715   64.1613    0.8080   64.2244    0.9085   64.2222    0.9107    0.0000    0.0000
  1.230   64.3560    0.8214   64.3363    0.8797   64.3493    0.8782   64.3447    0.8143   64.4081    0.9156   64.4060    0.9177    0.0000    0.0000
  1.240   64.5420    0.8278   64.5222    0.8865   64.5353    0.8851   64.5307    0.8208   64.5945    0.9227   64.5924    0.9248    0.0000    0.0000
  1.250   64.7307    0.8344   64.7107    0.8934   64.7239    0.8920   64.7194    0.8274   64.7836    0.9299   64.7815    0.9321    0.0000    0.0000
  1.260   64.9221    0.8410   64.9020    0.9005   64.9152    0.8991   64.9107    0.8341   64.9754    0.9373   64.9732    0.9395    0.0000    0.0000
  1.270   65.1162    0.8478   65.0960    0.9077   65.1093    0.9063   65.1049    0.8409   65.1699    0.9449   65.1678    0.9470    0.0000    0.0000
  1.280   65.3131    0.8548   65.2927    0.9150   65.3061    0.9136   65.3017    0.8478   65.3672    0.9525   65.3651    0.9547    0.0000    0.0000
