# Macroscopic dielectric function obtained with the BS equation.
#  RPA L0 with KS energies and KS wavefunctions     LOCAL FIELD EFFECTS INCLUDED
# RESONANT-ONLY calculation
# Coulomb term constructed with full W(G1,G2)
# Scissor operator energy =  0.8000 [eV]
# nstates included in the diagonalization = 96
# npweps  = 113
# npwwfn  = 259
# nbands  = 8
# loband  = 2
# nkibz   = 3
# nkbz    = 8
# Lorentzian broadening =  0.0000 [eV]
# List of q-points for the optical limit:
# q =  0.938821, 0.000000, 0.000000, [Reduced coords] 
# q =  0.000000, 0.938821, 0.000000, [Reduced coords] 
# q =  0.000000, 0.000000, 0.938821, [Reduced coords] 
# q =  0.000000, 0.813043, 0.813043, [Reduced coords] 
# q =  0.813043, 0.000000, 0.813043, [Reduced coords] 
# q =  0.813043, 0.813043, 0.000000, [Reduced coords] 
# omega [eV]    RE(eps(q=1)) IM(eps(q=1) RE(eps(q=2) ) ... DOS   IDOS
  0.000   55.7451    1.3839   55.6907    1.4855   55.7021    1.4817   55.7207    1.3764   55.7988    1.5001   55.7945    1.5059   -0.0000   -0.0000
  0.010   55.7457    1.3839   55.6913    1.4856   55.7027    1.4818   55.7212    1.3765   55.7993    1.5001   55.7950    1.5060   -0.0000   -0.0000
  0.020   55.7474    1.3840   55.6930    1.4857   55.7044    1.4819   55.7229    1.3766   55.8010    1.5003   55.7967    1.5061   -0.0000   -0.0000
  0.030   55.7502    1.3842   55.6958    1.4859   55.7072    1.4821   55.7257    1.3768   55.8038    1.5005   55.7996    1.5064   -0.0000   -0.0000
  0.040   55.7541    1.3845   55.6997    1.4862   55.7111    1.4824   55.7297    1.3771   55.8078    1.5008   55.8035    1.5067   -0.0000   -0.0000
  0.050   55.7592    1.3849   55.7048    1.4866   55.7162    1.4828   55.7347    1.3775   55.8129    1.5012   55.8086    1.5071   -0.0000   -0.0000
  0.060   55.7654    1.3854   55.7110    1.4871   55.7223    1.4833   55.7409    1.3779   55.8191    1.5017   55.8148    1.5076   -0.0000   -0.0000
  0.070   55.7727    1.3859   55.7183    1.4877   55.7296    1.4839   55.7482    1.3785   55.8264    1.5023   55.8221    1.5081   -0.0000   -0.0000
  0.080   55.7812    1.3865   55.7267    1.4883   55.7381    1.4845   55.7567    1.3791   55.8349    1.5030   55.8306    1.5088   -0.0000   -0.0000
  0.090   55.7908    1.3872   55.7362    1.4891   55.7476    1.4853   55.7663    1.3798   55.8445    1.5037   55.8402    1.5096   -0.0000   -0.0000
  0.100   55.8015    1.3880   55.7469    1.4899   55.7583    1.4861   55.7770    1.3806   55.8553    1.5046   55.8510    1.5104   -0.0000   -0.0000
  0.110   55.8133    1.3889   55.7587    1.4908   55.7701    1.4870   55.7888    1.3815   55.8671    1.5055   55.8628    1.5114   -0.0000   -0.0000
  0.120   55.8263    1.3899   55.7717    1.4919   55.7831    1.4881   55.8018    1.3824   55.8801    1.5066   55.8758    1.5124   -0.0000   -0.0000
  0.130   55.8404    1.3909   55.7858    1.4930   55.7972    1.4892   55.8159    1.3835   55.8943    1.5077   55.8900    1.5135   -0.0000   -0.0000
  0.140   55.8557    1.3920   55.8010    1.4942   55.8124    1.4904   55.8311    1.3846   55.9096    1.5089   55.9053    1.5148   -0.0000   -0.0000
  0.150   55.8721    1.3933   55.8173    1.4955   55.8287    1.4917   55.8475    1.3858   55.9260    1.5102   55.9217    1.5161   -0.0000   -0.0000
  0.160   55.8896    1.3946   55.8348    1.4968   55.8462    1.4930   55.8651    1.3871   55.9436    1.5116   55.9393    1.5175   -0.0000   -0.0000
  0.170   55.9083    1.3959   55.8535    1.4983   55.8649    1.4945   55.8837    1.3885   55.9623    1.5131   55.9580    1.5190   -0.0000   -0.0000
  0.180   55.9281    1.3974   55.8732    1.4999   55.8847    1.4961   55.9035    1.3900   55.9822    1.5147   55.9779    1.5205   -0.0000   -0.0000
  0.190   55.9491    1.3990   55.8941    1.5015   55.9056    1.4977   55.9245    1.3915   56.0033    1.5164   55.9989    1.5222   -0.0000   -0.0000
  0.200   55.9712    1.4006   55.9162    1.5032   55.9277    1.4994   55.9466    1.3932   56.0254    1.5181   56.0211    1.5240   -0.0000   -0.0000
  0.210   55.9945    1.4023   55.9394    1.5051   55.9509    1.5013   55.9699    1.3949   56.0488    1.5200   56.0445    1.5259   -0.0000   -0.0000
  0.220   56.0189    1.4042   55.9638    1.5070   55.9753    1.5032   55.9943    1.3967   56.0733    1.5219   56.0690    1.5278   -0.0000   -0.0000
  0.230   56.0445    1.4061   55.9893    1.5090   56.0008    1.5052   56.0199    1.3986   56.0990    1.5240   56.0946    1.5299   -0.0000   -0.0000
  0.240   56.0713    1.4081   56.0160    1.5111   56.0275    1.5073   56.0467    1.4006   56.1258    1.5261   56.1215    1.5320   -0.0000   -0.0000
  0.250   56.0992    1.4101   56.0439    1.5133   56.0554    1.5095   56.0746    1.4027   56.1538    1.5284   56.1495    1.5343   -0.0000   -0.0000
  0.260   56.1283    1.4123   56.0729    1.5156   56.0844    1.5118   56.1037    1.4049   56.1830    1.5307   56.1787    1.5366   -0.0000   -0.0000
  0.270   56.1586    1.4146   56.1031    1.5180   56.1146    1.5142   56.1339    1.4071   56.2133    1.5331   56.2090    1.5390   -0.0000   -0.0000
  0.280   56.1901    1.4169   56.1345    1.5205   56.1460    1.5167   56.1654    1.4095   56.2449    1.5357   56.2406    1.5416   -0.0000   -0.0000
  0.290   56.2227    1.4194   56.1670    1.5231   56.1786    1.5193   56.1980    1.4119   56.2776    1.5383   56.2733    1.5442   -0.0000   -0.0000
  0.300   56.2565    1.4219   56.2008    1.5258   56.2123    1.5220   56.2318    1.4144   56.3115    1.5410   56.3072    1.5469   -0.0000   -0.0000
  0.310   56.2916    1.4245   56.2357    1.5285   56.2472    1.5247   56.2668    1.4170   56.3466    1.5438   56.3423    1.5497   -0.0000   -0.0000
  0.320   56.3278    1.4272   56.2718    1.5314   56.2834    1.5276   56.3030    1.4198   56.3830    1.5468   56.3786    1.5527   -0.0000   -0.0000
  0.330   56.3652    1.4300   56.3091    1.5344   56.3207    1.5306   56.3404    1.4226   56.4205    1.5498   56.4161    1.5557   -0.0000   -0.0000
  0.340   56.4038    1.4329   56.3477    1.5375   56.3592    1.5336   56.3790    1.4255   56.4592    1.5529   56.4549    1.5588   -0.0000   -0.0000
  0.350   56.4437    1.4359   56.3874    1.5406   56.3990    1.5368   56.4189    1.4284   56.4991    1.5561   56.4948    1.5620   -0.0000   -0.0000
  0.360   56.4847    1.4390   56.4283    1.5439   56.4399    1.5401   56.4599    1.4315   56.5403    1.5594   56.5360    1.5653   -0.0000   -0.0000
  0.370   56.5270    1.4422   56.4705    1.5473   56.4821    1.5434   56.5021    1.4347   56.5827    1.5629   56.5784    1.5688   -0.0000   -0.0000
  0.380   56.5705    1.4454   56.5139    1.5507   56.5255    1.5469   56.5456    1.4380   56.6263    1.5664   56.6220    1.5723   -0.0000   -0.0000
  0.390   56.6152    1.4488   56.5585    1.5543   56.5701    1.5505   56.5903    1.4414   56.6712    1.5700   56.6668    1.5759   -0.0000   -0.0000
  0.400   56.6612    1.4523   56.6043    1.5580   56.6160    1.5541   56.6363    1.4448   56.7173    1.5738   56.7129    1.5797   -0.0000   -0.0000
  0.410   56.7084    1.4559   56.6514    1.5617   56.6631    1.5579   56.6835    1.4484   56.7646    1.5776   56.7603    1.5835   -0.0000   -0.0000
  0.420   56.7569    1.4595   56.6998    1.5656   56.7115    1.5618   56.7319    1.4521   56.8132    1.5815   56.8089    1.5875   -0.0000   -0.0000
  0.430   56.8066    1.4633   56.7494    1.5696   56.7611    1.5658   56.7817    1.4558   56.8631    1.5856   56.8587    1.5915   -0.0000   -0.0000
  0.440   56.8576    1.4672   56.8002    1.5737   56.8120    1.5699   56.8326    1.4597   56.9142    1.5898   56.9099    1.5957   -0.0000   -0.0000
  0.450   56.9099    1.4711   56.8524    1.5779   56.8641    1.5741   56.8849    1.4637   56.9666    1.5940   56.9623    1.6000   -0.0000   -0.0000
  0.460   56.9634    1.4752   56.9058    1.5822   56.9175    1.5784   56.9384    1.4677   57.0203    1.5984   57.0160    1.6043   -0.0000   -0.0000
  0.470   57.0183    1.4794   56.9605    1.5866   56.9722    1.5828   56.9932    1.4719   57.0753    1.6029   57.0710    1.6088   -0.0000   -0.0000
  0.480   57.0744    1.4836   57.0165    1.5912   57.0282    1.5873   57.0493    1.4762   57.1316    1.6075   57.1272    1.6134   -0.0000   -0.0000
  0.490   57.1319    1.4880   57.0737    1.5958   57.0855    1.5919   57.1067    1.4806   57.1892    1.6122   57.1848    1.6182   -0.0000   -0.0000
  0.500   57.1906    1.4925   57.1323    1.6005   57.1441    1.5967   57.1655    1.4850   57.2481    1.6171   57.2437    1.6230   -0.0000   -0.0000
  0.510   57.2507    1.4971   57.1922    1.6054   57.2041    1.6015   57.2255    1.4896   57.3083    1.6220   57.3040    1.6279   -0.0000   -0.0000
  0.520   57.3121    1.5018   57.2534    1.6104   57.2653    1.6065   57.2869    1.4943   57.3699    1.6271   57.3655    1.6330   -0.0000   -0.0000
  0.530   57.3748    1.5066   57.3160    1.6155   57.3279    1.6116   57.3496    1.4992   57.4328    1.6322   57.4284    1.6382   -0.0000   -0.0000
  0.540   57.4389    1.5115   57.3799    1.6207   57.3918    1.6168   57.4136    1.5041   57.4970    1.6375   57.4927    1.6435   -0.0000   -0.0000
  0.550   57.5043    1.5166   57.4451    1.6260   57.4570    1.6221   57.4790    1.5091   57.5626    1.6430   57.5583    1.6489   -0.0000   -0.0000
  0.560   57.5711    1.5217   57.5117    1.6315   57.5237    1.6276   57.5458    1.5143   57.6296    1.6485   57.6252    1.6544   -0.0000   -0.0000
  0.570   57.6392    1.5270   57.5797    1.6370   57.5917    1.6332   57.6139    1.5195   57.6980    1.6542   57.6936    1.6601   -0.0000   -0.0000
  0.580   57.7088    1.5323   57.6491    1.6427   57.6610    1.6388   57.6834    1.5249   57.7677    1.6599   57.7633    1.6659   -0.0000   -0.0000
  0.590   57.7797    1.5378   57.7198    1.6485   57.7318    1.6446   57.7543    1.5304   57.8388    1.6659   57.8344    1.6718   -0.0000   -0.0000
  0.600   57.8520    1.5434   57.7919    1.6545   57.8039    1.6506   57.8266    1.5360   57.9114    1.6719   57.9069    1.6779   -0.0000   -0.0000
  0.610   57.9258    1.5492   57.8655    1.6605   57.8775    1.6566   57.9003    1.5417   57.9853    1.6781   57.9809    1.6840   -0.0000   -0.0000
  0.620   58.0009    1.5550   57.9404    1.6667   57.9525    1.6628   57.9754    1.5476   58.0607    1.6843   58.0563    1.6903   -0.0000   -0.0000
  0.630   58.0775    1.5610   58.0168    1.6730   58.0289    1.6691   58.0520    1.5535   58.1375    1.6908   58.1331    1.6967   -0.0000   -0.0000
  0.640   58.1556    1.5671   58.0946    1.6795   58.1068    1.6756   58.1300    1.5596   58.2158    1.6973   58.2113    1.7033   -0.0000   -0.0000
  0.650   58.2351    1.5733   58.1739    1.6860   58.1861    1.6821   58.2095    1.5659   58.2955    1.7040   58.2910    1.7100   -0.0000   -0.0000
  0.660   58.3160    1.5797   58.2547    1.6928   58.2668    1.6889   58.2904    1.5722   58.3767    1.7108   58.3722    1.7168   -0.0000   -0.0000
  0.670   58.3985    1.5861   58.3369    1.6996   58.3491    1.6957   58.3729    1.5787   58.4593    1.7178   58.4549    1.7238   -0.0000   -0.0000
  0.680   58.4824    1.5927   58.4206    1.7066   58.4328    1.7027   58.4568    1.5853   58.5435    1.7249   58.5391    1.7309   -0.0000   -0.0000
  0.690   58.5679    1.5995   58.5058    1.7137   58.5180    1.7098   58.5422    1.5920   58.6292    1.7322   58.6248    1.7382   -0.0000   -0.0000
  0.700   58.6548    1.6063   58.5925    1.7210   58.6048    1.7171   58.6291    1.5989   58.7164    1.7395   58.7120    1.7455   -0.0000   -0.0000
  0.710   58.7433    1.6133   58.6808    1.7284   58.6931    1.7245   58.7176    1.6059   58.8052    1.7471   58.8007    1.7531   -0.0000   -0.0000
  0.720   58.8334    1.6205   58.7706    1.7359   58.7829    1.7320   58.8076    1.6130   58.8954    1.7548   58.8910    1.7608   -0.0000   -0.0000
  0.730   58.9250    1.6277   58.8619    1.7436   58.8742    1.7397   58.8991    1.6203   58.9873    1.7626   58.9828    1.7686   -0.0000   -0.0000
  0.740   59.0181    1.6352   58.9548    1.7514   58.9672    1.7475   58.9922    1.6277   59.0807    1.7706   59.0763    1.7766   -0.0000   -0.0000
  0.750   59.1129    1.6427   59.0493    1.7594   59.0617    1.7555   59.0870    1.6353   59.1757    1.7787   59.1713    1.7847   -0.0000   -0.0000
  0.760   59.2092    1.6504   59.1454    1.7676   59.1578    1.7636   59.1833    1.6430   59.2724    1.7870   59.2679    1.7930   -0.0000   -0.0000
  0.770   59.3072    1.6583   59.2430    1.7759   59.2555    1.7719   59.2812    1.6508   59.3706    1.7954   59.3661    1.8014   -0.0000   -0.0000
  0.780   59.4068    1.6663   59.3424    1.7843   59.3548    1.7804   59.3808    1.6588   59.4705    1.8040   59.4660    1.8100   -0.0000   -0.0000
  0.790   59.5080    1.6744   59.4433    1.7929   59.4558    1.7890   59.4820    1.6670   59.5720    1.8128   59.5675    1.8188   -0.0000   -0.0000
  0.800   59.6109    1.6827   59.5459    1.8017   59.5585    1.7978   59.5848    1.6753   59.6752    1.8217   59.6707    1.8277   -0.0000   -0.0000
  0.810   59.7155    1.6911   59.6502    1.8106   59.6628    1.8067   59.6894    1.6838   59.7801    1.8308   59.7756    1.8368   -0.0000   -0.0000
  0.820   59.8218    1.6998   59.7562    1.8197   59.7688    1.8158   59.7956    1.6924   59.8867    1.8401   59.8822    1.8461   -0.0000   -0.0000
  0.830   59.9298    1.7085   59.8639    1.8290   59.8765    1.8250   59.9036    1.7011   59.9950    1.8495   59.9905    1.8555   -0.0000   -0.0000
  0.840   60.0395    1.7175   59.9733    1.8384   59.9859    1.8345   60.0132    1.7101   60.1050    1.8591   60.1005    1.8651   -0.0000   -0.0000
  0.850   60.1510    1.7265   60.0844    1.8480   60.0971    1.8441   60.1247    1.7192   60.2168    1.8689   60.2123    1.8749   -0.0000   -0.0000
  0.860   60.2642    1.7358   60.1973    1.8578   60.2100    1.8539   60.2379    1.7284   60.3304    1.8788   60.3258    1.8849   -0.0000   -0.0000
  0.870   60.3792    1.7452   60.3120    1.8678   60.3248    1.8638   60.3528    1.7379   60.4457    1.8890   60.4412    1.8950   -0.0000   -0.0000
  0.880   60.4960    1.7548   60.4285    1.8779   60.4413    1.8740   60.4696    1.7475   60.5629    1.8993   60.5583    1.9054   -0.0000   -0.0000
  0.890   60.6147    1.7646   60.5468    1.8883   60.5596    1.8843   60.5882    1.7573   60.6818    1.9098   60.6773    1.9159   -0.0000   -0.0000
  0.900   60.7351    1.7746   60.6669    1.8988   60.6798    1.8948   60.7086    1.7672   60.8027    1.9205   60.7981    1.9266   -0.0000   -0.0000
  0.910   60.8575    1.7847   60.7889    1.9095   60.8018    1.9055   60.8309    1.7774   60.9254    1.9314   60.9208    1.9375   -0.0000   -0.0000
  0.920   60.9817    1.7950   60.9127    1.9204   60.9257    1.9164   60.9551    1.7877   61.0499    1.9425   61.0454    1.9486   -0.0000   -0.0000
  0.930   61.1078    1.8055   61.0385    1.9315   61.0515    1.9275   61.0812    1.7982   61.1764    1.9538   61.1719    1.9599   -0.0000   -0.0000
  0.940   61.2359    1.8162   61.1661    1.9427   61.1792    1.9388   61.2092    1.8089   61.3049    1.9653   61.3003    1.9714   -0.0000   -0.0000
  0.950   61.3659    1.8271   61.2958    1.9542   61.3088    1.9502   61.3391    1.8198   61.4352    1.9770   61.4307    1.9831   -0.0000   -0.0000
  0.960   61.4978    1.8382   61.4273    1.9659   61.4404    1.9619   61.4710    1.8309   61.5676    1.9889   61.5630    1.9950   -0.0000   -0.0000
  0.970   61.6318    1.8494   61.5609    1.9778   61.5740    1.9738   61.6050    1.8422   61.7019    2.0010   61.6974    2.0071   -0.0000   -0.0000
  0.980   61.7677    1.8609   61.6965    1.9900   61.7096    1.9860   61.7409    1.8537   61.8383    2.0134   61.8337    2.0195   -0.0000   -0.0000
  0.990   61.9058    1.8726   61.8341    2.0023   61.8473    1.9983   61.8788    1.8654   61.9767    2.0259   61.9721    2.0320   -0.0000   -0.0000
  1.000   62.0458    1.8845   61.9737    2.0148   61.9870    2.0108   62.0189    1.8773   62.1172    2.0387   62.1126    2.0448   -0.0000   -0.0000
  1.010   62.1880    1.8966   62.1154    2.0276   62.1287    2.0236   62.1610    1.8894   62.2598    2.0517   62.2552    2.0578   -0.0000   -0.0000
  1.020   62.3323    1.9089   62.2593    2.0406   62.2726    2.0366   62.3052    1.9017   62.4045    2.0650   62.3999    2.0711   -0.0000   -0.0000
  1.030   62.4787    1.9215   62.4053    2.0539   62.4186    2.0498   62.4516    1.9143   62.5513    2.0785   62.5467    2.0846   -0.0000   -0.0000
  1.040   62.6272    1.9342   62.5534    2.0673   62.5668    2.0633   62.6001    1.9271   62.7004    2.0922   62.6958    2.0983   -0.0000   -0.0000
  1.050   62.7780    1.9472   62.7037    2.0811   62.7172    2.0770   62.7509    1.9401   62.8516    2.1062   62.8470    2.1123   -0.0000   -0.0000
  1.060   62.9310    1.9605   62.8562    2.0950   62.8698    2.0910   62.9038    1.9533   63.0051    2.1204   63.0004    2.1265   -0.0000   -0.0000
  1.070   63.0863    1.9739   63.0110    2.1092   63.0246    2.1052   63.0590    1.9668   63.1608    2.1349   63.1562    2.1410   -0.0000   -0.0000
  1.080   63.2438    1.9876   63.1681    2.1237   63.1817    2.1196   63.2165    1.9806   63.3188    2.1496   63.3142    2.1557   -0.0000   -0.0000
  1.090   63.4036    2.0016   63.3274    2.1384   63.3411    2.1344   63.3763    1.9945   63.4791    2.1646   63.4745    2.1707   -0.0000   -0.0000
  1.100   63.5658    2.0158   63.4891    2.1534   63.5028    2.1493   63.5384    2.0088   63.6418    2.1798   63.6371    2.1860   -0.0000   -0.0000
  1.110   63.7303    2.0303   63.6531    2.1686   63.6669    2.1646   63.7029    2.0232   63.8068    2.1954   63.8022    2.2015   -0.0000   -0.0000
  1.120   63.8973    2.0450   63.8196    2.1842   63.8334    2.1801   63.8698    2.0380   63.9743    2.2112   63.9696    2.2173   -0.0000   -0.0000
  1.130   64.0667    2.0600   63.9884    2.2000   64.0023    2.1959   64.0392    2.0530   64.1442    2.2273   64.1395    2.2335   -0.0000   -0.0000
  1.140   64.2385    2.0752   64.1597    2.2160   64.1737    2.2120   64.2110    2.0683   64.3166    2.2437   64.3119    2.2498   -0.0000   -0.0000
  1.150   64.4129    2.0907   64.3336    2.2324   64.3475    2.2284   64.3853    2.0838   64.4915    2.2604   64.4868    2.2665   -0.0000   -0.0000
  1.160   64.5898    2.1066   64.5099    2.2491   64.5239    2.2450   64.5621    2.0997   64.6689    2.2774   64.6642    2.2835   -0.0000   -0.0000
  1.170   64.7692    2.1227   64.6888    2.2661   64.7029    2.2620   64.7416    2.1158   64.8489    2.2947   64.8443    2.3008   -0.0000   -0.0000
  1.180   64.9513    2.1391   64.8703    2.2833   64.8844    2.2793   64.9236    2.1322   65.0316    2.3123   65.0269    2.3184   -0.0000   -0.0000
  1.190   65.1360    2.1557   65.0545    2.3009   65.0686    2.2968   65.1083    2.1489   65.2169    2.3302   65.2122    2.3364   -0.0000   -0.0000
  1.200   65.3234    2.1727   65.2413    2.3188   65.2555    2.3147   65.2956    2.1660   65.4049    2.3485   65.4002    2.3546   -0.0000   -0.0000
  1.210   65.5136    2.1900   65.4308    2.3371   65.4451    2.3330   65.4857    2.1833   65.5956    2.3670   65.5909    2.3732   -0.0000   -0.0000
  1.220   65.7065    2.2077   65.6231    2.3556   65.6374    2.3515   65.6786    2.2010   65.7891    2.3860   65.7844    2.3921   -0.0000   -0.0000
  1.230   65.9022    2.2256   65.8181    2.3745   65.8325    2.3704   65.8742    2.2189   65.9854    2.4053   65.9807    2.4114   -0.0000   -0.0000
  1.240   66.1007    2.2439   66.0161    2.3938   66.0305    2.3897   66.0727    2.2372   66.1846    2.4249   66.1799    2.4311   -0.0000   -0.0000
  1.250   66.3021    2.2625   66.2168    2.4134   66.2314    2.4093   66.2741    2.2559   66.3866    2.4449   66.3819    2.4510   -0.0000   -0.0000
  1.260   66.5065    2.2815   66.4205    2.4334   66.4351    2.4293   66.4785    2.2749   66.5917    2.4652   66.5870    2.4714   -0.0000   -0.0000
  1.270   66.7138    2.3008   66.6272    2.4537   66.6419    2.4496   66.6858    2.2942   66.7997    2.4860   66.7950    2.4921   -0.0000   -0.0000
  1.280   66.9242    2.3204   66.8369    2.4744   66.8516    2.4703   66.8961    2.3140   67.0107    2.5071   67.0060    2.5133   -0.0000   -0.0000
