# Macroscopic dielectric function obtained with the BS equation.
#  RPA L0 with KS energies and KS wavefunctions     LOCAL FIELD EFFECTS INCLUDED
# RESONANT-ONLY calculation
# Coulomb term constructed with full W(G1,G2)
# Scissor operator energy =  0.8000 [eV]
# nstates included in the diagonalization = 96
# npweps  = 113
# npwwfn  = 259
# nbands  = 8
# loband  = 2
# nkibz   = 3
# nkbz    = 8
# Lorentzian broadening =  0.0000 [eV]
# List of q-points for the optical limit:
# q =  0.938821, 0.000000, 0.000000, [Reduced coords] 
# q =  0.000000, 0.938821, 0.000000, [Reduced coords] 
# q =  0.000000, 0.000000, 0.938821, [Reduced coords] 
# q =  0.000000, 0.813043, 0.813043, [Reduced coords] 
# q =  0.813043, 0.000000, 0.813043, [Reduced coords] 
# q =  0.813043, 0.813043, 0.000000, [Reduced coords] 
# omega [eV]    RE(eps(q=1)) IM(eps(q=1) RE(eps(q=2) ) ... DOS   IDOS
  0.000   55.7355    0.2853   55.6898    0.3544   55.6975    0.3535   55.7107    0.2673   55.7961    0.3415   55.7923    0.3498   -0.0000   -0.0000
  0.010   55.7360    0.2922   55.6903    0.3616   55.6980    0.3606   55.7112    0.2744   55.7966    0.3488   55.7928    0.3571   -0.0000   -0.0000
  0.020   55.7377    0.2992   55.6920    0.3688   55.6997    0.3678   55.7129    0.2814   55.7982    0.3562   55.7944    0.3645   -0.0000   -0.0000
  0.030   55.7406    0.3062   55.6947    0.3759   55.7025    0.3750   55.7157    0.2885   55.8010    0.3636   55.7972    0.3718   -0.0000   -0.0000
  0.040   55.7445    0.3132   55.6986    0.3832   55.7064    0.3822   55.7197    0.2956   55.8049    0.3710   55.8011    0.3792   -0.0000   -0.0000
  0.050   55.7496    0.3203   55.7036    0.3904   55.7114    0.3894   55.7247    0.3027   55.8100    0.3784   55.8062    0.3866   -0.0000   -0.0000
  0.060   55.7558    0.3273   55.7097    0.3976   55.7175    0.3966   55.7309    0.3098   55.8161    0.3858   55.8123    0.3941   -0.0000   -0.0000
  0.070   55.7631    0.3344   55.7170    0.4049   55.7248    0.4039   55.7383    0.3169   55.8234    0.3933   55.8196    0.4015   -0.0000   -0.0000
  0.080   55.7716    0.3415   55.7254    0.4122   55.7332    0.4112   55.7467    0.3241   55.8319    0.4008   55.8281    0.4090   -0.0000   -0.0000
  0.090   55.7811    0.3486   55.7349    0.4196   55.7428    0.4185   55.7563    0.3313   55.8415    0.4083   55.8376    0.4165   -0.0000   -0.0000
  0.100   55.7919    0.3557   55.7455    0.4269   55.7534    0.4259   55.7670    0.3385   55.8522    0.4158   55.8484    0.4240   -0.0000   -0.0000
  0.110   55.8037    0.3629   55.7573    0.4343   55.7652    0.4332   55.7789    0.3457   55.8640    0.4234   55.8602    0.4316   -0.0000   -0.0000
  0.120   55.8167    0.3701   55.7702    0.4417   55.7781    0.4406   55.7919    0.3530   55.8770    0.4310   55.8732    0.4392   -0.0000   -0.0000
  0.130   55.8308    0.3773   55.7842    0.4492   55.7922    0.4481   55.8060    0.3603   55.8911    0.4386   55.8873    0.4468   -0.0000   -0.0000
  0.140   55.8461    0.3846   55.7994    0.4567   55.8074    0.4556   55.8212    0.3676   55.9064    0.4463   55.9026    0.4545   -0.0000   -0.0000
  0.150   55.8625    0.3919   55.8157    0.4642   55.8237    0.4631   55.8376    0.3749   55.9228    0.4540   55.9190    0.4622   -0.0000   -0.0000
  0.160   55.8800    0.3992   55.8332    0.4717   55.8412    0.4706   55.8552    0.3823   55.9403    0.4617   55.9365    0.4699   -0.0000   -0.0000
  0.170   55.8987    0.4065   55.8518    0.4793   55.8598    0.4782   55.8738    0.3897   55.9590    0.4695   55.9552    0.4776   -0.0000   -0.0000
  0.180   55.9186    0.4139   55.8715    0.4869   55.8796    0.4858   55.8937    0.3971   55.9789    0.4773   55.9751    0.4854   -0.0000   -0.0000
  0.190   55.9396    0.4213   55.8924    0.4946   55.9005    0.4934   55.9146    0.4046   55.9999    0.4851   55.9961    0.4932   -0.0000   -0.0000
  0.200   55.9617    0.4287   55.9144    0.5023   55.9225    0.5011   55.9368    0.4121   56.0220    0.4930   56.0182    0.5011   -0.0000   -0.0000
  0.210   55.9850    0.4362   55.9376    0.5100   55.9457    0.5088   55.9601    0.4196   56.0453    0.5009   56.0415    0.5090   -0.0000   -0.0000
  0.220   56.0094    0.4437   55.9620    0.5178   55.9701    0.5166   55.9845    0.4272   56.0698    0.5089   56.0660    0.5170   -0.0000   -0.0000
  0.230   56.0350    0.4512   55.9875    0.5256   55.9956    0.5243   56.0101    0.4348   56.0954    0.5169   56.0916    0.5249   -0.0000   -0.0000
  0.240   56.0618    0.4588   56.0141    0.5334   56.0223    0.5322   56.0369    0.4424   56.1222    0.5249   56.1184    0.5330   -0.0000   -0.0000
  0.250   56.0898    0.4664   56.0419    0.5413   56.0501    0.5401   56.0648    0.4501   56.1502    0.5330   56.1464    0.5410   -0.0000   -0.0000
  0.260   56.1189    0.4741   56.0709    0.5492   56.0792    0.5480   56.0939    0.4578   56.1794    0.5411   56.1756    0.5491   -0.0000   -0.0000
  0.270   56.1492    0.4818   56.1011    0.5572   56.1093    0.5560   56.1242    0.4655   56.2097    0.5492   56.2059    0.5573   -0.0000   -0.0000
  0.280   56.1806    0.4895   56.1325    0.5652   56.1407    0.5640   56.1556    0.4733   56.2412    0.5575   56.2374    0.5655   -0.0000   -0.0000
  0.290   56.2133    0.4973   56.1650    0.5733   56.1733    0.5720   56.1883    0.4812   56.2739    0.5657   56.2701    0.5738   -0.0000   -0.0000
  0.300   56.2471    0.5051   56.1987    0.5814   56.2070    0.5801   56.2221    0.4890   56.3078    0.5740   56.3040    0.5821   -0.0000   -0.0000
  0.310   56.2822    0.5130   56.2336    0.5896   56.2419    0.5883   56.2571    0.4970   56.3429    0.5824   56.3391    0.5904   -0.0000   -0.0000
  0.320   56.3184    0.5209   56.2697    0.5978   56.2780    0.5965   56.2933    0.5049   56.3792    0.5908   56.3754    0.5988   -0.0000   -0.0000
  0.330   56.3558    0.5289   56.3070    0.6061   56.3153    0.6048   56.3307    0.5130   56.4167    0.5992   56.4129    0.6072   -0.0000   -0.0000
  0.340   56.3945    0.5369   56.3455    0.6144   56.3539    0.6131   56.3694    0.5210   56.4554    0.6077   56.4516    0.6158   -0.0000   -0.0000
  0.350   56.4343    0.5450   56.3852    0.6228   56.3936    0.6214   56.4092    0.5291   56.4953    0.6163   56.4915    0.6243   -0.0000   -0.0000
  0.360   56.4754    0.5531   56.4261    0.6312   56.4345    0.6299   56.4502    0.5373   56.5365    0.6249   56.5327    0.6329   -0.0000   -0.0000
  0.370   56.5177    0.5612   56.4682    0.6397   56.4767    0.6383   56.4925    0.5455   56.5788    0.6336   56.5750    0.6416   -0.0000   -0.0000
  0.380   56.5612    0.5695   56.5116    0.6483   56.5201    0.6469   56.5360    0.5538   56.6224    0.6423   56.6186    0.6503   -0.0000   -0.0000
  0.390   56.6059    0.5777   56.5562    0.6569   56.5647    0.6555   56.5807    0.5621   56.6673    0.6511   56.6635    0.6591   -0.0000   -0.0000
  0.400   56.6519    0.5861   56.6020    0.6655   56.6106    0.6641   56.6267    0.5705   56.7134    0.6600   56.7095    0.6680   -0.0000   -0.0000
  0.410   56.6992    0.5944   56.6491    0.6743   56.6577    0.6728   56.6739    0.5789   56.7607    0.6689   56.7569    0.6769   -0.0000   -0.0000
  0.420   56.7477    0.6029   56.6974    0.6831   56.7060    0.6816   56.7224    0.5874   56.8093    0.6779   56.8055    0.6858   -0.0000   -0.0000
  0.430   56.7974    0.6114   56.7470    0.6919   56.7556    0.6905   56.7721    0.5960   56.8591    0.6869   56.8553    0.6949   -0.0000   -0.0000
  0.440   56.8484    0.6200   56.7978    0.7008   56.8065    0.6994   56.8231    0.6046   56.9103    0.6960   56.9064    0.7040   -0.0000   -0.0000
  0.450   56.9007    0.6286   56.8499    0.7098   56.8586    0.7083   56.8754    0.6132   56.9627    0.7052   56.9588    0.7132   -0.0000   -0.0000
  0.460   56.9543    0.6373   56.9033    0.7189   56.9120    0.7174   56.9289    0.6220   57.0163    0.7145   57.0125    0.7224   -0.0000   -0.0000
  0.470   57.0091    0.6460   56.9580    0.7280   56.9667    0.7265   56.9837    0.6308   57.0713    0.7238   57.0675    0.7317   -0.0000   -0.0000
  0.480   57.0653    0.6548   57.0139    0.7372   57.0227    0.7357   57.0399    0.6396   57.1276    0.7332   57.1237    0.7411   -0.0000   -0.0000
  0.490   57.1227    0.6637   57.0712    0.7464   57.0800    0.7449   57.0973    0.6486   57.1852    0.7426   57.1813    0.7506   -0.0000   -0.0000
  0.500   57.1815    0.6727   57.1298    0.7558   57.1386    0.7543   57.1560    0.6576   57.2440    0.7522   57.2402    0.7601   -0.0000   -0.0000
  0.510   57.2416    0.6817   57.1896    0.7652   57.1985    0.7637   57.2161    0.6666   57.3043    0.7618   57.3004    0.7697   -0.0000   -0.0000
  0.520   57.3030    0.6908   57.2509    0.7747   57.2598    0.7731   57.2775    0.6758   57.3658    0.7715   57.3620    0.7794   -0.0000   -0.0000
  0.530   57.3657    0.7000   57.3134    0.7843   57.3223    0.7827   57.3402    0.6850   57.4287    0.7813   57.4248    0.7892   -0.0000   -0.0000
  0.540   57.4298    0.7092   57.3773    0.7939   57.3862    0.7923   57.4042    0.6943   57.4929    0.7911   57.4891    0.7990   -0.0000   -0.0000
  0.550   57.4952    0.7185   57.4425    0.8037   57.4515    0.8021   57.4697    0.7036   57.5585    0.8010   57.5547    0.8089   -0.0000   -0.0000
  0.560   57.5620    0.7279   57.5091    0.8135   57.5181    0.8119   57.5364    0.7131   57.6255    0.8111   57.6216    0.8190   -0.0000   -0.0000
  0.570   57.6302    0.7374   57.5770    0.8234   57.5861    0.8218   57.6046    0.7226   57.6938    0.8212   57.6899    0.8291   -0.0000   -0.0000
  0.580   57.6998    0.7470   57.6464    0.8334   57.6555    0.8317   57.6741    0.7322   57.7635    0.8314   57.7597    0.8392   -0.0000   -0.0000
  0.590   57.7707    0.7566   57.7171    0.8434   57.7262    0.8418   57.7450    0.7419   57.8346    0.8416   57.8308    0.8495   -0.0000   -0.0000
  0.600   57.8431    0.7663   57.7892    0.8536   57.7984    0.8520   57.8173    0.7517   57.9072    0.8520   57.9033    0.8599   -0.0000   -0.0000
  0.610   57.9168    0.7762   57.8627    0.8639   57.8719    0.8622   57.8911    0.7615   57.9811    0.8625   57.9772    0.8704   -0.0000   -0.0000
  0.620   57.9920    0.7861   57.9377    0.8742   57.9469    0.8725   57.9662    0.7714   58.0565    0.8731   58.0526    0.8809   -0.0000   -0.0000
  0.630   58.0686    0.7960   58.0141    0.8847   58.0233    0.8830   58.0428    0.7815   58.1333    0.8837   58.1294    0.8916   -0.0000   -0.0000
  0.640   58.1467    0.8061   58.0919    0.8952   58.1012    0.8935   58.1208    0.7916   58.2115    0.8945   58.2076    0.9023   -0.0000   -0.0000
  0.650   58.2262    0.8163   58.1711    0.9058   58.1805    0.9042   58.2003    0.8018   58.2912    0.9053   58.2873    0.9132   -0.0000   -0.0000
  0.660   58.3072    0.8266   58.2519    0.9166   58.2612    0.9149   58.2813    0.8121   58.3724    0.9163   58.3685    0.9241   -0.0000   -0.0000
  0.670   58.3897    0.8369   58.3341    0.9274   58.3435    0.9257   58.3637    0.8225   58.4551    0.9274   58.4512    0.9352   -0.0000   -0.0000
  0.680   58.4736    0.8474   58.4178    0.9384   58.4272    0.9367   58.4476    0.8330   58.5393    0.9385   58.5353    0.9464   -0.0000   -0.0000
  0.690   58.5591    0.8580   58.5030    0.9495   58.5124    0.9477   58.5331    0.8436   58.6249    0.9498   58.6210    0.9577   -0.0000   -0.0000
  0.700   58.6461    0.8686   58.5897    0.9606   58.5992    0.9589   58.6200    0.8544   58.7121    0.9612   58.7082    0.9691   -0.0000   -0.0000
  0.710   58.7346    0.8794   58.6779    0.9719   58.6874    0.9701   58.7085    0.8652   58.8009    0.9727   58.7969    0.9806   -0.0000   -0.0000
  0.720   58.8246    0.8903   58.7677    0.9833   58.7772    0.9815   58.7985    0.8761   58.8911    0.9844   58.8872    0.9922   -0.0000   -0.0000
  0.730   58.9162    0.9013   58.8590    0.9948   58.8686    0.9930   58.8901    0.8871   58.9830    0.9961   58.9791    1.0039   -0.0000   -0.0000
  0.740   59.0094    0.9124   58.9519    1.0064   58.9615    1.0047   58.9832    0.8983   59.0764    1.0080   59.0725    1.0158   -0.0000   -0.0000
  0.750   59.1042    0.9236   59.0464    1.0182   59.0561    1.0164   59.0780    0.9095   59.1714    1.0199   59.1675    1.0278   -0.0000   -0.0000
  0.760   59.2006    0.9349   59.1424    1.0301   59.1522    1.0283   59.1743    0.9209   59.2680    1.0321   59.2641    1.0399   -0.0000   -0.0000
  0.770   59.2986    0.9464   59.2401    1.0421   59.2499    1.0402   59.2723    0.9324   59.3663    1.0443   59.3623    1.0521   -0.0000   -0.0000
  0.780   59.3982    0.9579   59.3394    1.0542   59.3492    1.0524   59.3718    0.9440   59.4662    1.0567   59.4622    1.0645   -0.0000   -0.0000
  0.790   59.4994    0.9696   59.4404    1.0664   59.4502    1.0646   59.4731    0.9557   59.5677    1.0692   59.5637    1.0770   -0.0000   -0.0000
  0.800   59.6024    0.9815   59.5430    1.0788   59.5528    1.0770   59.5759    0.9676   59.6709    1.0818   59.6669    1.0896   -0.0000   -0.0000
  0.810   59.7070    0.9934   59.6472    1.0914   59.6572    1.0895   59.6805    0.9796   59.7757    1.0946   59.7718    1.1024   -0.0000   -0.0000
  0.820   59.8132    1.0055   59.7532    1.1040   59.7632    1.1021   59.7868    0.9917   59.8823    1.1075   59.8784    1.1153   -0.0000   -0.0000
  0.830   59.9213    1.0177   59.8609    1.1168   59.8709    1.1149   59.8947    1.0039   59.9906    1.1205   59.9866    1.1283   -0.0000   -0.0000
  0.840   60.0310    1.0300   59.9703    1.1298   59.9803    1.1279   60.0044    1.0163   60.1006    1.1338   60.0967    1.1415   -0.0000   -0.0000
  0.850   60.1425    1.0425   60.0814    1.1429   60.0915    1.1410   60.1159    1.0288   60.2124    1.1471   60.2084    1.1549   -0.0000   -0.0000
  0.860   60.2557    1.0551   60.1943    1.1561   60.2044    1.1542   60.2291    1.0415   60.3260    1.1606   60.3220    1.1684   -0.0000   -0.0000
  0.870   60.3707    1.0679   60.3090    1.1695   60.3191    1.1676   60.3441    1.0543   60.4413    1.1743   60.4373    1.1821   -0.0000   -0.0000
  0.880   60.4876    1.0808   60.4254    1.1831   60.4357    1.1811   60.4608    1.0673   60.5585    1.1881   60.5545    1.1959   -0.0000   -0.0000
  0.890   60.6062    1.0939   60.5437    1.1968   60.5540    1.1948   60.5795    1.0804   60.6774    1.2021   60.6734    1.2098   -0.0000   -0.0000
  0.900   60.7267    1.1071   60.6638    1.2106   60.6742    1.2087   60.6999    1.0936   60.7983    1.2162   60.7943    1.2240   -0.0000   -0.0000
  0.910   60.8491    1.1205   60.7858    1.2247   60.7962    1.2227   60.8222    1.1070   60.9210    1.2305   60.9169    1.2383   -0.0000   -0.0000
  0.920   60.9733    1.1340   60.9097    1.2389   60.9201    1.2369   60.9464    1.1206   61.0455    1.2450   61.0415    1.2528   -0.0000   -0.0000
  0.930   61.0995    1.1477   61.0354    1.2532   61.0459    1.2513   61.0725    1.1343   61.1720    1.2597   61.1680    1.2674   -0.0000   -0.0000
  0.940   61.2275    1.1616   61.1631    1.2678   61.1736    1.2658   61.2005    1.1482   61.3004    1.2745   61.2964    1.2823   -0.0000   -0.0000
  0.950   61.3575    1.1756   61.2927    1.2825   61.3032    1.2805   61.3305    1.1623   61.4308    1.2895   61.4268    1.2973   -0.0000   -0.0000
  0.960   61.4895    1.1898   61.4242    1.2974   61.4348    1.2954   61.4625    1.1766   61.5632    1.3047   61.5591    1.3125   -0.0000   -0.0000
  0.970   61.6235    1.2042   61.5578    1.3125   61.5684    1.3105   61.5964    1.1910   61.6975    1.3201   61.6935    1.3279   -0.0000   -0.0000
  0.980   61.7595    1.2187   61.6934    1.3278   61.7040    1.3258   61.7323    1.2056   61.8339    1.3357   61.8298    1.3435   -0.0000   -0.0000
  0.990   61.8975    1.2335   61.8309    1.3433   61.8417    1.3412   61.8703    1.2204   61.9723    1.3515   61.9682    1.3592   -0.0000   -0.0000
  1.000   62.0376    1.2484   61.9706    1.3590   61.9814    1.3569   62.0104    1.2353   62.1128    1.3675   62.1087    1.3752   -0.0000   -0.0000
  1.010   62.1798    1.2635   62.1123    1.3748   62.1232    1.3728   62.1525    1.2505   62.2554    1.3837   62.2513    1.3914   -0.0000   -0.0000
  1.020   62.3241    1.2788   62.2562    1.3909   62.2671    1.3888   62.2967    1.2659   62.4001    1.4001   62.3960    1.4078   -0.0000   -0.0000
  1.030   62.4705    1.2943   62.4021    1.4072   62.4131    1.4051   62.4431    1.2814   62.5469    1.4167   62.5428    1.4244   -0.0000   -0.0000
  1.040   62.6191    1.3101   62.5503    1.4237   62.5613    1.4216   62.5917    1.2972   62.6959    1.4335   62.6919    1.4413   -0.0000   -0.0000
  1.050   62.7699    1.3260   62.7006    1.4405   62.7116    1.4383   62.7424    1.3131   62.8472    1.4506   62.8431    1.4583   -0.0000   -0.0000
  1.060   62.9229    1.3421   62.8531    1.4574   62.8642    1.4553   62.8954    1.3293   63.0006    1.4678   62.9965    1.4756   -0.0000   -0.0000
  1.070   63.0782    1.3585   63.0079    1.4746   63.0190    1.4724   63.0506    1.3457   63.1563    1.4854   63.1523    1.4931   -0.0000   -0.0000
  1.080   63.2357    1.3750   63.1649    1.4920   63.1761    1.4898   63.2081    1.3623   63.3143    1.5031   63.3102    1.5108   -0.0000   -0.0000
  1.090   63.3956    1.3918   63.3243    1.5096   63.3355    1.5075   63.3679    1.3792   63.4747    1.5211   63.4706    1.5288   -0.0000   -0.0000
  1.100   63.5578    1.4089   63.4859    1.5275   63.4973    1.5253   63.5301    1.3963   63.6373    1.5394   63.6332    1.5471   -0.0000   -0.0000
  1.110   63.7223    1.4261   63.6500    1.5456   63.6614    1.5435   63.6946    1.4136   63.8024    1.5578   63.7983    1.5656   -0.0000   -0.0000
  1.120   63.8893    1.4436   63.8164    1.5640   63.8278    1.5618   63.8615    1.4311   63.9698    1.5766   63.9657    1.5843   -0.0000   -0.0000
  1.130   64.0587    1.4614   63.9853    1.5827   63.9968    1.5805   64.0309    1.4489   64.1398    1.5956   64.1356    1.6033   -0.0000   -0.0000
  1.140   64.2306    1.4794   64.1566    1.6016   64.1681    1.5994   64.2027    1.4670   64.3121    1.6149   64.3080    1.6226   -0.0000   -0.0000
  1.150   64.4049    1.4976   64.3304    1.6208   64.3420    1.6186   64.3771    1.4853   64.4870    1.6345   64.4829    1.6422   -0.0000   -0.0000
  1.160   64.5818    1.5162   64.5067    1.6402   64.5184    1.6380   64.5539    1.5039   64.6645    1.6543   64.6603    1.6620   -0.0000   -0.0000
  1.170   64.7613    1.5350   64.6856    1.6600   64.6974    1.6577   64.7334    1.5227   64.8445    1.6744   64.8403    1.6822   -0.0000   -0.0000
  1.180   64.9434    1.5540   64.8671    1.6800   64.8789    1.6777   64.9154    1.5418   65.0271    1.6949   65.0230    1.7026   -0.0000   -0.0000
  1.190   65.1281    1.5734   65.0513    1.7003   65.0631    1.6981   65.1001    1.5612   65.2124    1.7156   65.2083    1.7233   -0.0000   -0.0000
  1.200   65.3156    1.5930   65.2381    1.7209   65.2500    1.7187   65.2875    1.5809   65.4004    1.7366   65.3963    1.7443   -0.0000   -0.0000
  1.210   65.5057    1.6129   65.4276    1.7419   65.4396    1.7396   65.4776    1.6009   65.5912    1.7580   65.5870    1.7657   -0.0000   -0.0000
  1.220   65.6986    1.6331   65.6199    1.7631   65.6319    1.7608   65.6705    1.6212   65.7847    1.7796   65.7805    1.7873   -0.0000   -0.0000
  1.230   65.8943    1.6537   65.8149    1.7847   65.8271    1.7824   65.8662    1.6418   65.9810    1.8016   65.9768    1.8093   -0.0000   -0.0000
  1.240   66.0929    1.6745   66.0129    1.8065   66.0250    1.8042   66.0647    1.6627   66.1801    1.8240   66.1760    1.8317   -0.0000   -0.0000
  1.250   66.2943    1.6957   66.2136    1.8288   66.2259    1.8265   66.2661    1.6839   66.3822    1.8466   66.3780    1.8543   -0.0000   -0.0000
  1.260   66.4987    1.7171   66.4173    1.8513   66.4297    1.8490   66.4704    1.7054   66.5872    1.8697   66.5831    1.8773   -0.0000   -0.0000
  1.270   66.7061    1.7390   66.6240    1.8743   66.6364    1.8719   66.6778    1.7273   66.7952    1.8931   66.7911    1.9007   -0.0000   -0.0000
  1.280   66.9165    1.7611   66.8337    1.8975   66.8462    1.8952   66.8881    1.7496   67.0063    1.9168   67.0021    1.9245   -0.0000   -0.0000
