# Macroscopic dielectric function obtained with the BS equation.
#  RPA L0 with KS energies and KS wavefunctions     LOCAL FIELD EFFECTS INCLUDED
# RESONANT-ONLY calculation
# Coulomb term constructed with full W(G1,G2)
# Scissor operator energy =  0.8000 [eV]
# nstates included in the diagonalization = 96
# npweps  = 113
# npwwfn  = 259
# nbands  = 8
# loband  = 2
# nkibz   = 3
# nkbz    = 8
# Lorentzian broadening =  0.0000 [eV]
# List of q-points for the optical limit:
# q =  0.938821, 0.000000, 0.000000, [Reduced coords] 
# q =  0.000000, 0.938821, 0.000000, [Reduced coords] 
# q =  0.000000, 0.000000, 0.938821, [Reduced coords] 
# q =  0.000000, 0.813043, 0.813043, [Reduced coords] 
# q =  0.813043, 0.000000, 0.813043, [Reduced coords] 
# q =  0.813043, 0.813043, 0.000000, [Reduced coords] 
# omega [eV]    RE(eps(q=1)) IM(eps(q=1) RE(eps(q=2) ) ... DOS   IDOS
  0.000   57.6111    3.2906   57.4573    3.5296   57.4719    3.5217   57.5571    3.2815   57.6942    3.5480   57.6844    3.5600   -0.0000   -0.0000
  0.010   57.6117    3.2907   57.4579    3.5297   57.4725    3.5218   57.5577    3.2816   57.6948    3.5481   57.6850    3.5601   -0.0000   -0.0000
  0.020   57.6136    3.2910   57.4597    3.5300   57.4743    3.5221   57.5596    3.2819   57.6967    3.5484   57.6869    3.5604   -0.0000   -0.0000
  0.030   57.6167    3.2916   57.4628    3.5306   57.4774    3.5227   57.5627    3.2825   57.6998    3.5490   57.6900    3.5610   -0.0000   -0.0000
  0.040   57.6210    3.2923   57.4671    3.5314   57.4817    3.5235   57.5670    3.2832   57.7041    3.5498   57.6943    3.5618   -0.0000   -0.0000
  0.050   57.6266    3.2933   57.4726    3.5324   57.4872    3.5245   57.5726    3.2842   57.7097    3.5508   57.6999    3.5629   -0.0000   -0.0000
  0.060   57.6334    3.2944   57.4794    3.5336   57.4940    3.5257   57.5794    3.2854   57.7165    3.5521   57.7067    3.5641   -0.0000   -0.0000
  0.070   57.6414    3.2958   57.4874    3.5351   57.5020    3.5272   57.5874    3.2867   57.7246    3.5536   57.7148    3.5656   -0.0000   -0.0000
  0.080   57.6507    3.2974   57.4966    3.5368   57.5112    3.5289   57.5967    3.2884   57.7339    3.5553   57.7241    3.5673   -0.0000   -0.0000
  0.090   57.6613    3.2993   57.5070    3.5387   57.5216    3.5308   57.6072    3.2902   57.7445    3.5573   57.7347    3.5693   -0.0000   -0.0000
  0.100   57.6730    3.3013   57.5187    3.5409   57.5333    3.5330   57.6190    3.2922   57.7563    3.5595   57.7465    3.5715   -0.0000   -0.0000
  0.110   57.6861    3.3036   57.5316    3.5432   57.5462    3.5353   57.6320    3.2945   57.7694    3.5619   57.7596    3.5739   -0.0000   -0.0000
  0.120   57.7003    3.3060   57.5458    3.5458   57.5604    3.5379   57.6462    3.2969   57.7837    3.5645   57.7739    3.5765   -0.0000   -0.0000
  0.130   57.7159    3.3087   57.5612    3.5487   57.5758    3.5408   57.6617    3.2996   57.7993    3.5674   57.7895    3.5794   -0.0000   -0.0000
  0.140   57.7326    3.3116   57.5778    3.5517   57.5924    3.5438   57.6785    3.3025   57.8161    3.5705   57.8063    3.5825   -0.0000   -0.0000
  0.150   57.7506    3.3148   57.5957    3.5550   57.6103    3.5471   57.6965    3.3057   57.8342    3.5738   57.8244    3.5859   -0.0000   -0.0000
  0.160   57.7699    3.3181   57.6148    3.5585   57.6294    3.5506   57.7158    3.3090   57.8535    3.5774   57.8437    3.5894   -0.0000   -0.0000
  0.170   57.7905    3.3217   57.6352    3.5623   57.6498    3.5544   57.7363    3.3126   57.8741    3.5812   57.8643    3.5933   -0.0000   -0.0000
  0.180   57.8123    3.3255   57.6568    3.5663   57.6714    3.5584   57.7581    3.3164   57.8960    3.5853   57.8862    3.5973   -0.0000   -0.0000
  0.190   57.8353    3.3295   57.6797    3.5705   57.6943    3.5626   57.7811    3.3204   57.9191    3.5896   57.9093    3.6016   -0.0000   -0.0000
  0.200   57.8597    3.3337   57.7038    3.5750   57.7185    3.5670   57.8054    3.3246   57.9435    3.5941   57.9337    3.6061   -0.0000   -0.0000
  0.210   57.8853    3.3381   57.7292    3.5797   57.7439    3.5717   57.8310    3.3291   57.9692    3.5989   57.9594    3.6109   -0.0000   -0.0000
  0.220   57.9121    3.3428   57.7558    3.5846   57.7705    3.5767   57.8578    3.3338   57.9962    3.6039   57.9864    3.6159   -0.0000   -0.0000
  0.230   57.9403    3.3477   57.7838    3.5897   57.7984    3.5818   57.8860    3.3387   58.0244    3.6091   58.0146    3.6212   -0.0000   -0.0000
  0.240   57.9697    3.3529   57.8130    3.5951   57.8276    3.5872   57.9154    3.3438   58.0540    3.6146   58.0441    3.6267   -0.0000   -0.0000
  0.250   58.0005    3.3582   57.8434    3.6008   57.8581    3.5929   57.9461    3.3492   58.0848    3.6204   58.0749    3.6324   -0.0000   -0.0000
  0.260   58.0325    3.3638   57.8752    3.6067   57.8899    3.5987   57.9780    3.3547   58.1169    3.6263   58.1071    3.6384   -0.0000   -0.0000
  0.270   58.0658    3.3696   57.9082    3.6128   57.9229    3.6049   58.0113    3.3606   58.1503    3.6326   58.1405    3.6446   -0.0000   -0.0000
  0.280   58.1004    3.3757   57.9425    3.6192   57.9573    3.6112   58.0459    3.3666   58.1850    3.6390   58.1752    3.6511   -0.0000   -0.0000
  0.290   58.1363    3.3820   57.9781    3.6258   57.9929    3.6179   58.0818    3.3729   58.2211    3.6458   58.2112    3.6578   -0.0000   -0.0000
  0.300   58.1735    3.3885   58.0150    3.6327   58.0298    3.6247   58.1189    3.3794   58.2584    3.6527   58.2485    3.6648   -0.0000   -0.0000
  0.310   58.2121    3.3952   58.0533    3.6398   58.0680    3.6318   58.1574    3.3862   58.2971    3.6600   58.2872    3.6720   -0.0000   -0.0000
  0.320   58.2519    3.4022   58.0928    3.6471   58.1076    3.6392   58.1972    3.3932   58.3370    3.6675   58.3272    3.6795   -0.0000   -0.0000
  0.330   58.2931    3.4095   58.1336    3.6547   58.1484    3.6468   58.2384    3.4004   58.3784    3.6752   58.3685    3.6872   -0.0000   -0.0000
  0.340   58.3356    3.4169   58.1758    3.6626   58.1906    3.6547   58.2808    3.4079   58.4210    3.6832   58.4111    3.6952   -0.0000   -0.0000
  0.350   58.3795    3.4246   58.2193    3.6707   58.2341    3.6628   58.3246    3.4156   58.4650    3.6914   58.4551    3.7035   -0.0000   -0.0000
  0.360   58.4246    3.4326   58.2641    3.6791   58.2789    3.6712   58.3698    3.4236   58.5103    3.7000   58.5004    3.7120   -0.0000   -0.0000
  0.370   58.4712    3.4408   58.3102    3.6878   58.3251    3.6798   58.4163    3.4318   58.5570    3.7088   58.5471    3.7208   -0.0000   -0.0000
  0.380   58.5191    3.4493   58.3577    3.6967   58.3726    3.6887   58.4641    3.4403   58.6051    3.7178   58.5951    3.7299   -0.0000   -0.0000
  0.390   58.5683    3.4580   58.4065    3.7058   58.4214    3.6979   58.5133    3.4490   58.6545    3.7271   58.6445    3.7392   -0.0000   -0.0000
  0.400   58.6190    3.4669   58.4567    3.7153   58.4716    3.7073   58.5639    3.4579   58.7053    3.7367   58.6953    3.7488   -0.0000   -0.0000
  0.410   58.6710    3.4761   58.5083    3.7250   58.5232    3.7170   58.6158    3.4672   58.7574    3.7466   58.7475    3.7586   -0.0000   -0.0000
  0.420   58.7244    3.4856   58.5612    3.7349   58.5762    3.7269   58.6692    3.4766   58.8110    3.7567   58.8010    3.7688   -0.0000   -0.0000
  0.430   58.7791    3.4954   58.6156    3.7452   58.6305    3.7372   58.7239    3.4864   58.8659    3.7671   58.8560    3.7792   -0.0000   -0.0000
  0.440   58.8353    3.5053   58.6713    3.7557   58.6862    3.7477   58.7800    3.4964   58.9223    3.7778   58.9123    3.7899   -0.0000   -0.0000
  0.450   58.8929    3.5156   58.7284    3.7665   58.7433    3.7585   58.8375    3.5066   58.9801    3.7888   58.9701    3.8009   -0.0000   -0.0000
  0.460   58.9519    3.5261   58.7869    3.7776   58.8018    3.7696   58.8965    3.5172   59.0392    3.8000   59.0293    3.8121   -0.0000   -0.0000
  0.470   59.0123    3.5369   58.8468    3.7889   58.8618    3.7809   58.9568    3.5280   59.0999    3.8116   59.0899    3.8237   -0.0000   -0.0000
  0.480   59.0742    3.5480   58.9081    3.8006   58.9231    3.7925   59.0186    3.5390   59.1619    3.8234   59.1519    3.8355   -0.0000   -0.0000
  0.490   59.1375    3.5593   58.9709    3.8125   58.9859    3.8045   59.0819    3.5504   59.2254    3.8356   59.2154    3.8477   -0.0000   -0.0000
  0.500   59.2022    3.5709   59.0351    3.8247   59.0501    3.8167   59.1466    3.5620   59.2904    3.8480   59.2804    3.8601   -0.0000   -0.0000
  0.510   59.2684    3.5828   59.1007    3.8372   59.1158    3.8292   59.2127    3.5739   59.3568    3.8607   59.3468    3.8728   -0.0000   -0.0000
  0.520   59.3361    3.5950   59.1678    3.8500   59.1829    3.8420   59.2803    3.5861   59.4247    3.8737   59.4147    3.8859   -0.0000   -0.0000
  0.530   59.4053    3.6075   59.2364    3.8632   59.2515    3.8551   59.3494    3.5986   59.4941    3.8871   59.4841    3.8992   -0.0000   -0.0000
  0.540   59.4759    3.6202   59.3064    3.8766   59.3216    3.8685   59.4200    3.6114   59.5650    3.9007   59.5549    3.9129   -0.0000   -0.0000
  0.550   59.5481    3.6333   59.3780    3.8903   59.3931    3.8822   59.4921    3.6244   59.6374    3.9147   59.6273    3.9268   -0.0000   -0.0000
  0.560   59.6218    3.6466   59.4510    3.9043   59.4662    3.8963   59.5657    3.6378   59.7113    3.9290   59.7012    3.9411   -0.0000   -0.0000
  0.570   59.6969    3.6603   59.5255    3.9187   59.5407    3.9106   59.6408    3.6514   59.7867    3.9436   59.7766    3.9557   -0.0000   -0.0000
  0.580   59.7737    3.6742   59.6016    3.9334   59.6168    3.9253   59.7174    3.6654   59.8637    3.9585   59.8536    3.9706   -0.0000   -0.0000
  0.590   59.8519    3.6885   59.6792    3.9483   59.6944    3.9403   59.7956    3.6797   59.9422    3.9737   59.9321    3.9859   -0.0000   -0.0000
  0.600   59.9318    3.7030   59.7583    3.9637   59.7736    3.9556   59.8754    3.6942   60.0223    3.9893   60.0122    4.0015   -0.0000   -0.0000
  0.610   60.0132    3.7179   59.8390    3.9793   59.8543    3.9712   59.9567    3.7091   60.1039    4.0052   60.0938    4.0174   -0.0000   -0.0000
  0.620   60.0961    3.7331   59.9213    3.9953   59.9366    3.9872   60.0396    3.7243   60.1872    4.0215   60.1771    4.0336   -0.0000   -0.0000
  0.630   60.1807    3.7486   60.0051    4.0116   60.0204    4.0035   60.1241    3.7399   60.2720    4.0381   60.2619    4.0502   -0.0000   -0.0000
  0.640   60.2669    3.7645   60.0905    4.0282   60.1059    4.0201   60.2102    3.7557   60.3585    4.0550   60.3483    4.0672   -0.0000   -0.0000
  0.650   60.3547    3.7807   60.1775    4.0453   60.1929    4.0371   60.2979    3.7719   60.4465    4.0723   60.4364    4.0845   -0.0000   -0.0000
  0.660   60.4441    3.7972   60.2662    4.0626   60.2816    4.0545   60.3872    3.7885   60.5363    4.0900   60.5261    4.1022   -0.0000   -0.0000
  0.670   60.5352    3.8140   60.3565    4.0803   60.3719    4.0722   60.4782    3.8053   60.6276    4.1080   60.6175    4.1202   -0.0000   -0.0000
  0.680   60.6280    3.8312   60.4484    4.0984   60.4639    4.0902   60.5709    3.8225   60.7207    4.1264   60.7105    4.1386   -0.0000   -0.0000
  0.690   60.7224    3.8487   60.5420    4.1168   60.5575    4.1087   60.6652    3.8401   60.8154    4.1451   60.8052    4.1573   -0.0000   -0.0000
  0.700   60.8185    3.8666   60.6373    4.1356   60.6528    4.1275   60.7613    3.8580   60.9118    4.1643   60.9017    4.1765   -0.0000   -0.0000
  0.710   60.9163    3.8849   60.7342    4.1548   60.7498    4.1466   60.8590    3.8763   61.0100    4.1838   60.9998    4.1960   -0.0000   -0.0000
  0.720   61.0159    3.9035   60.8329    4.1743   60.8484    4.1662   60.9584    3.8949   61.1099    4.2037   61.0996    4.2159   -0.0000   -0.0000
  0.730   61.1171    3.9225   60.9333    4.1943   60.9489    4.1861   61.0596    3.9139   61.2115    4.2240   61.2012    4.2362   -0.0000   -0.0000
  0.740   61.2202    3.9418   61.0354    4.2146   61.0510    4.2065   61.1626    3.9333   61.3148    4.2447   61.3046    4.2569   -0.0000   -0.0000
  0.750   61.3250    3.9616   61.1392    4.2354   61.1549    4.2272   61.2673    3.9531   61.4200    4.2658   61.4097    4.2780   -0.0000   -0.0000
  0.760   61.4316    3.9817   61.2449    4.2565   61.2606    4.2483   61.3738    3.9732   61.5269    4.2873   61.5167    4.2995   -0.0000   -0.0000
  0.770   61.5400    4.0022   61.3523    4.2780   61.3680    4.2698   61.4821    3.9937   61.6357    4.3092   61.6254    4.3215   -0.0000   -0.0000
  0.780   61.6502    4.0231   61.4616    4.3000   61.4773    4.2918   61.5922    4.0147   61.7463    4.3316   61.7360    4.3438   -0.0000   -0.0000
  0.790   61.7623    4.0444   61.5726    4.3224   61.5884    4.3141   61.7042    4.0360   61.8587    4.3544   61.8484    4.3666   -0.0000   -0.0000
  0.800   61.8762    4.0661   61.6855    4.3452   61.7013    4.3369   61.8180    4.0578   61.9730    4.3776   61.9627    4.3898   -0.0000   -0.0000
  0.810   61.9921    4.0883   61.8003    4.3684   61.8161    4.3602   61.9338    4.0799   62.0892    4.4012   62.0789    4.4135   -0.0000   -0.0000
  0.820   62.1098    4.1108   61.9169    4.3921   61.9328    4.3838   62.0514    4.1025   62.2073    4.4254   62.1970    4.4376   -0.0000   -0.0000
  0.830   62.2294    4.1338   62.0355    4.4162   62.0514    4.4079   62.1709    4.1255   62.3273    4.4499   62.3170    4.4622   -0.0000   -0.0000
  0.840   62.3510    4.1572   62.1559    4.4408   62.1719    4.4325   62.2924    4.1490   62.4493    4.4750   62.4390    4.4872   -0.0000   -0.0000
  0.850   62.4745    4.1811   62.2783    4.4658   62.2943    4.4575   62.4158    4.1729   62.5732    4.5005   62.5629    4.5127   -0.0000   -0.0000
  0.860   62.6000    4.2054   62.4027    4.4913   62.4187    4.4830   62.5412    4.1972   62.6992    4.5264   62.6888    4.5387   -0.0000   -0.0000
  0.870   62.7275    4.2302   62.5290    4.5173   62.5451    4.5090   62.6686    4.2220   62.8271    4.5529   62.8167    4.5652   -0.0000   -0.0000
  0.880   62.8571    4.2554   62.6574    4.5438   62.6734    4.5355   62.7980    4.2473   62.9571    4.5799   62.9467    4.5922   -0.0000   -0.0000
  0.890   62.9887    4.2811   62.7877    4.5707   62.8039    4.5624   62.9295    4.2730   63.0891    4.6073   63.0787    4.6196   -0.0000   -0.0000
  0.900   63.1223    4.3073   62.9202    4.5982   62.9363    4.5899   63.0631    4.2992   63.2232    4.6353   63.2128    4.6476   -0.0000   -0.0000
  0.910   63.2581    4.3339   63.0546    4.6262   63.0708    4.6178   63.1987    4.3259   63.3594    4.6638   63.3489    4.6761   -0.0000   -0.0000
  0.920   63.3960    4.3611   63.1912    4.6546   63.2075    4.6463   63.3365    4.3532   63.4977    4.6929   63.4873    4.7051   -0.0000   -0.0000
  0.930   63.5360    4.3888   63.3299    4.6837   63.3462    4.6753   63.4764    4.3809   63.6382    4.7224   63.6277    4.7347   -0.0000   -0.0000
  0.940   63.6782    4.4170   63.4708    4.7132   63.4871    4.7049   63.6185    4.4091   63.7808    4.7526   63.7704    4.7648   -0.0000   -0.0000
  0.950   63.8226    4.4457   63.6138    4.7433   63.6301    4.7350   63.7627    4.4379   63.9257    4.7832   63.9152    4.7955   -0.0000   -0.0000
  0.960   63.9692    4.4749   63.7590    4.7740   63.7754    4.7656   63.9092    4.4672   64.0728    4.8145   64.0623    4.8268   -0.0000   -0.0000
  0.970   64.1180    4.5047   63.9064    4.8052   63.9229    4.7968   64.0580    4.4970   64.2221    4.8463   64.2116    4.8586   -0.0000   -0.0000
  0.980   64.2691    4.5350   64.0561    4.8370   64.0726    4.8286   64.2090    4.5274   64.3737    4.8787   64.3632    4.8910   -0.0000   -0.0000
  0.990   64.4226    4.5659   64.2081    4.8694   64.2246    4.8610   64.3623    4.5583   64.5277    4.9117   64.5171    4.9240   -0.0000   -0.0000
  1.000   64.5783    4.5974   64.3624    4.9023   64.3789    4.8939   64.5179    4.5899   64.6839    4.9453   64.6734    4.9577   -0.0000   -0.0000
  1.010   64.7365    4.6295   64.5190    4.9359   64.5356    4.9275   64.6759    4.6220   64.8426    4.9796   64.8320    4.9919   -0.0000   -0.0000
  1.020   64.8970    4.6621   64.6779    4.9701   64.6946    4.9617   64.8363    4.6547   65.0036    5.0145   64.9931    5.0268   -0.0000   -0.0000
  1.030   65.0599    4.6954   64.8393    5.0049   64.8560    4.9965   64.9991    4.6880   65.1671    5.0500   65.1565    5.0623   -0.0000   -0.0000
  1.040   65.2253    4.7292   65.0031    5.0404   65.0198    5.0320   65.1644    4.7219   65.3330    5.0862   65.3224    5.0985   -0.0000   -0.0000
  1.050   65.3932    4.7637   65.1693    5.0765   65.1861    5.0681   65.3322    4.7565   65.5015    5.1230   65.4909    5.1353   -0.0000   -0.0000
  1.060   65.5636    4.7989   65.3381    5.1133   65.3549    5.1049   65.5025    4.7917   65.6724    5.1606   65.6618    5.1729   -0.0000   -0.0000
  1.070   65.7366    4.8347   65.5093    5.1508   65.5262    5.1424   65.6753    4.8276   65.8460    5.1988   65.8353    5.2111   -0.0000   -0.0000
  1.080   65.9121    4.8711   65.6831    5.1890   65.7000    5.1805   65.8507    4.8641   66.0221    5.2377   66.0114    5.2501   -0.0000   -0.0000
  1.090   66.0903    4.9083   65.8595    5.2279   65.8765    5.2194   66.0288    4.9014   66.2008    5.2774   66.1902    5.2897   -0.0000   -0.0000
  1.100   66.2711    4.9461   66.0386    5.2675   66.0555    5.2590   66.2095    4.9393   66.3823    5.3178   66.3716    5.3301   -0.0000   -0.0000
  1.110   66.4546    4.9847   66.2202    5.3078   66.2373    5.2993   66.3929    4.9779   66.5664    5.3590   66.5557    5.3713   -0.0000   -0.0000
  1.120   66.6409    5.0239   66.4046    5.3489   66.4217    5.3404   66.5790    5.0172   66.7532    5.4009   66.7425    5.4132   -0.0000   -0.0000
  1.130   66.8299    5.0639   66.5918    5.3907   66.6089    5.3822   66.7679    5.0573   66.9429    5.4436   66.9322    5.4559   -0.0000   -0.0000
  1.140   67.0217    5.1047   66.7817    5.4334   66.7988    5.4248   66.9596    5.0982   67.1354    5.4872   67.1246    5.4995   -0.0000   -0.0000
  1.150   67.2164    5.1462   66.9744    5.4768   66.9916    5.4682   67.1542    5.1398   67.3307    5.5315   67.3199    5.5438   -0.0000   -0.0000
  1.160   67.4140    5.1885   67.1699    5.5210   67.1872    5.5125   67.3516    5.1822   67.5289    5.5767   67.5182    5.5890   -0.0000   -0.0000
  1.170   67.6145    5.2316   67.3684    5.5661   67.3857    5.5575   67.5520    5.2254   67.7301    5.6227   67.7193    5.6350   -0.0000   -0.0000
  1.180   67.8180    5.2755   67.5698    5.6120   67.5872    5.6034   67.7554    5.2695   67.9342    5.6696   67.9235    5.6819   -0.0000   -0.0000
  1.190   68.0245    5.3203   67.7742    5.6588   67.7916    5.6502   67.9618    5.3143   68.1414    5.7174   68.1307    5.7297   -0.0000   -0.0000
  1.200   68.2341    5.3659   67.9816    5.7065   67.9991    5.6979   68.1712    5.3601   68.3517    5.7661   68.3409    5.7783   -0.0000   -0.0000
  1.210   68.4468    5.4124   68.1921    5.7550   68.2096    5.7464   68.3838    5.4067   68.5651    5.8157   68.5543    5.8280   -0.0000   -0.0000
  1.220   68.6626    5.4598   68.4057    5.8045   68.4233    5.7959   68.5995    5.4542   68.7817    5.8663   68.7709    5.8785   -0.0000   -0.0000
  1.230   68.8817    5.5081   68.6225    5.8550   68.6401    5.8464   68.8185    5.5026   69.0015    5.9178   68.9906    5.9301   -0.0000   -0.0000
  1.240   69.1040    5.5573   68.8425    5.9064   68.8602    5.8977   69.0407    5.5519   69.2245    5.9703   69.2137    5.9826   -0.0000   -0.0000
  1.250   69.3296    5.6075   69.0657    5.9588   69.0835    5.9501   69.2662    5.6022   69.4509    6.0239   69.4401    6.0361   -0.0000   -0.0000
  1.260   69.5586    5.6586   69.2923    6.0122   69.3101    6.0035   69.4951    5.6535   69.6806    6.0785   69.6698    6.0907   -0.0000   -0.0000
  1.270   69.7910    5.7107   69.5222    6.0666   69.5401    6.0579   69.7274    5.7058   69.9138    6.1341   69.9030    6.1463   -0.0000   -0.0000
  1.280   70.0269    5.7639   69.7556    6.1221   69.7735    6.1134   69.9631    5.7591   70.1505    6.1908   70.1396    6.2031   -0.0000   -0.0000
