# Macroscopic dielectric function obtained with the BS equation.
#  RPA L0 with KS energies and KS wavefunctions     LOCAL FIELD EFFECTS INCLUDED
# RESONANT-ONLY calculation
# Coulomb term constructed with full W(G1,G2)
# Scissor operator energy =  0.8000 [eV]
# Tolerance = -0.0010 0.0000
# npweps  = 113
# npwwfn  = 259
# nbands  = 8
# loband  = 2
# nkibz   = 3
# nkbz    = 8
# Lorentzian broadening =  0.0001 [eV]
# List of q-points for the optical limit:
# q =  0.938821, 0.000000, 0.000000, [Reduced coords] 
# q =  0.000000, 0.938821, 0.000000, [Reduced coords] 
# q =  0.000000, 0.000000, 0.938821, [Reduced coords] 
# q =  0.000000, 0.813043, 0.813043, [Reduced coords] 
# q =  0.813043, 0.000000, 0.813043, [Reduced coords] 
# q =  0.813043, 0.813043, 0.000000, [Reduced coords] 
# omega [eV]    RE(eps(q=1)) IM(eps(q=1) RE(eps(q=2) ) ... 
  0.000   54.7806    0.0000   54.7668    0.0000   54.7769    0.0000   54.7706    0.0000   54.8146    0.0000   54.8126    0.0000
  0.010   54.7812    0.0032   54.7674    0.0034   54.7774    0.0034   54.7711    0.0032   54.8151    0.0036   54.8131    0.0036
  0.020   54.7828    0.0064   54.7690    0.0069   54.7790    0.0069   54.7727    0.0064   54.8167    0.0072   54.8147    0.0072
  0.030   54.7854    0.0096   54.7716    0.0103   54.7817    0.0103   54.7754    0.0096   54.8194    0.0107   54.8174    0.0108
  0.040   54.7892    0.0129   54.7754    0.0138   54.7854    0.0137   54.7791    0.0128   54.8231    0.0143   54.8211    0.0144
  0.050   54.7940    0.0161   54.7802    0.0172   54.7902    0.0172   54.7839    0.0160   54.8279    0.0179   54.8260    0.0179
  0.060   54.7999    0.0193   54.7861    0.0207   54.7961    0.0206   54.7898    0.0192   54.8338    0.0215   54.8318    0.0215
  0.070   54.8068    0.0225   54.7930    0.0241   54.8030    0.0241   54.7967    0.0224   54.8408    0.0251   54.8388    0.0251
  0.080   54.8148    0.0258   54.8010    0.0276   54.8110    0.0275   54.8048    0.0256   54.8488    0.0287   54.8468    0.0287
  0.090   54.8239    0.0290   54.8101    0.0310   54.8201    0.0310   54.8138    0.0288   54.8579    0.0323   54.8559    0.0323
  0.100   54.8341    0.0322   54.8202    0.0345   54.8303    0.0344   54.8240    0.0320   54.8681    0.0359   54.8661    0.0359
  0.110   54.8453    0.0355   54.8315    0.0379   54.8415    0.0379   54.8352    0.0352   54.8794    0.0395   54.8774    0.0396
  0.120   54.8576    0.0387   54.8438    0.0414   54.8538    0.0413   54.8475    0.0384   54.8917    0.0431   54.8897    0.0432
  0.130   54.8710    0.0419   54.8572    0.0449   54.8672    0.0448   54.8609    0.0416   54.9051    0.0467   54.9031    0.0468
  0.140   54.8855    0.0452   54.8716    0.0483   54.8817    0.0483   54.8754    0.0449   54.9196    0.0503   54.9176    0.0504
  0.150   54.9010    0.0485   54.8872    0.0518   54.8972    0.0518   54.8909    0.0481   54.9352    0.0540   54.9332    0.0541
  0.160   54.9177    0.0517   54.9038    0.0553   54.9138    0.0553   54.9076    0.0513   54.9518    0.0576   54.9498    0.0577
  0.170   54.9354    0.0550   54.9215    0.0588   54.9316    0.0587   54.9253    0.0546   54.9696    0.0612   54.9676    0.0613
  0.180   54.9542    0.0583   54.9403    0.0623   54.9504    0.0622   54.9441    0.0578   54.9884    0.0649   54.9864    0.0650
  0.190   54.9741    0.0615   54.9602    0.0658   54.9702    0.0657   54.9640    0.0611   55.0083    0.0685   55.0063    0.0687
  0.200   54.9950    0.0648   54.9811    0.0693   54.9912    0.0693   54.9849    0.0643   55.0294    0.0722   55.0274    0.0723
  0.210   55.0171    0.0681   55.0032    0.0729   55.0133    0.0728   55.0070    0.0676   55.0515    0.0759   55.0495    0.0760
  0.220   55.0403    0.0714   55.0263    0.0764   55.0365    0.0763   55.0302    0.0709   55.0747    0.0795   55.0727    0.0797
  0.230   55.0646    0.0747   55.0506    0.0799   55.0607    0.0799   55.0545    0.0742   55.0990    0.0832   55.0970    0.0834
  0.240   55.0899    0.0781   55.0760    0.0835   55.0861    0.0834   55.0798    0.0775   55.1244    0.0869   55.1224    0.0871
  0.250   55.1164    0.0814   55.1024    0.0871   55.1126    0.0870   55.1063    0.0808   55.1509    0.0906   55.1489    0.0908
  0.260   55.1440    0.0847   55.1300    0.0906   55.1402    0.0905   55.1339    0.0841   55.1786    0.0944   55.1766    0.0945
  0.270   55.1727    0.0881   55.1587    0.0942   55.1689    0.0941   55.1626    0.0874   55.2073    0.0981   55.2053    0.0983
  0.280   55.2026    0.0915   55.1885    0.0978   55.1987    0.0977   55.1924    0.0908   55.2372    0.1018   55.2352    0.1020
  0.290   55.2335    0.0948   55.2194    0.1014   55.2296    0.1013   55.2233    0.0941   55.2682    0.1056   55.2662    0.1058
  0.300   55.2656    0.0982   55.2515    0.1050   55.2617    0.1049   55.2554    0.0975   55.3003    0.1094   55.2983    0.1096
  0.310   55.2988    0.1016   55.2847    0.1087   55.2948    0.1085   55.2886    0.1009   55.3336    0.1132   55.3316    0.1133
  0.320   55.3331    0.1050   55.3190    0.1123   55.3292    0.1122   55.3229    0.1042   55.3680    0.1169   55.3660    0.1171
  0.330   55.3686    0.1084   55.3544    0.1160   55.3646    0.1158   55.3584    0.1076   55.4035    0.1208   55.4015    0.1210
  0.340   55.4052    0.1119   55.3910    0.1197   55.4012    0.1195   55.3950    0.1111   55.4402    0.1246   55.4382    0.1248
  0.350   55.4429    0.1153   55.4287    0.1233   55.4390    0.1232   55.4327    0.1145   55.4780    0.1284   55.4760    0.1286
  0.360   55.4818    0.1188   55.4676    0.1270   55.4779    0.1269   55.4716    0.1179   55.5170    0.1323   55.5150    0.1325
  0.370   55.5219    0.1223   55.5077    0.1308   55.5179    0.1306   55.5117    0.1214   55.5571    0.1361   55.5551    0.1364
  0.380   55.5631    0.1258   55.5489    0.1345   55.5591    0.1343   55.5529    0.1248   55.5984    0.1400   55.5964    0.1403
  0.390   55.6055    0.1293   55.5912    0.1382   55.6015    0.1381   55.5953    0.1283   55.6409    0.1439   55.6389    0.1442
  0.400   55.6491    0.1328   55.6348    0.1420   55.6451    0.1418   55.6388    0.1318   55.6845    0.1479   55.6825    0.1481
  0.410   55.6938    0.1363   55.6795    0.1458   55.6898    0.1456   55.6836    0.1354   55.7293    0.1518   55.7273    0.1521
  0.420   55.7397    0.1399   55.7254    0.1496   55.7357    0.1494   55.7295    0.1389   55.7753    0.1558   55.7733    0.1560
  0.430   55.7868    0.1435   55.7725    0.1534   55.7828    0.1532   55.7766    0.1424   55.8225    0.1597   55.8205    0.1600
  0.440   55.8351    0.1471   55.8207    0.1573   55.8311    0.1571   55.8249    0.1460   55.8709    0.1637   55.8689    0.1640
  0.450   55.8847    0.1507   55.8702    0.1611   55.8806    0.1609   55.8744    0.1496   55.9205    0.1678   55.9185    0.1681
  0.460   55.9354    0.1543   55.9209    0.1650   55.9313    0.1648   55.9251    0.1532   55.9713    0.1718   55.9693    0.1721
  0.470   55.9873    0.1580   55.9728    0.1689   55.9832    0.1687   55.9770    0.1568   56.0234    0.1759   56.0213    0.1762
  0.480   56.0405    0.1616   56.0259    0.1728   56.0364    0.1726   56.0302    0.1605   56.0766    0.1800   56.0746    0.1803
  0.490   56.0949    0.1653   56.0803    0.1768   56.0907    0.1766   56.0846    0.1641   56.1311    0.1841   56.1291    0.1844
  0.500   56.1505    0.1690   56.1359    0.1807   56.1463    0.1805   56.1402    0.1678   56.1868    0.1882   56.1848    0.1885
  0.510   56.2074    0.1728   56.1927    0.1847   56.2032    0.1845   56.1970    0.1715   56.2438    0.1923   56.2418    0.1927
  0.520   56.2655    0.1765   56.2508    0.1887   56.2613    0.1885   56.2551    0.1753   56.3020    0.1965   56.3000    0.1969
  0.530   56.3249    0.1803   56.3102    0.1928   56.3207    0.1926   56.3145    0.1790   56.3615    0.2007   56.3595    0.2011
  0.540   56.3855    0.1841   56.3708    0.1968   56.3813    0.1966   56.3752    0.1828   56.4223    0.2050   56.4202    0.2053
  0.550   56.4474    0.1879   56.4327    0.2009   56.4432    0.2007   56.4371    0.1866   56.4843    0.2092   56.4823    0.2096
  0.560   56.5106    0.1918   56.4958    0.2050   56.5064    0.2048   56.5003    0.1904   56.5476    0.2135   56.5456    0.2139
  0.570   56.5751    0.1957   56.5603    0.2092   56.5709    0.2089   56.5648    0.1943   56.6122    0.2178   56.6102    0.2182
  0.580   56.6410    0.1996   56.6261    0.2133   56.6367    0.2131   56.6306    0.1982   56.6782    0.2222   56.6761    0.2225
  0.590   56.7081    0.2035   56.6931    0.2175   56.7038    0.2173   56.6977    0.2021   56.7454    0.2265   56.7434    0.2269
  0.600   56.7765    0.2074   56.7615    0.2218   56.7722    0.2215   56.7661    0.2060   56.8140    0.2309   56.8119    0.2313
  0.610   56.8463    0.2114   56.8313    0.2260   56.8419    0.2257   56.8358    0.2100   56.8839    0.2353   56.8818    0.2357
  0.620   56.9174    0.2154   56.9023    0.2303   56.9130    0.2300   56.9069    0.2140   56.9551    0.2398   56.9530    0.2402
  0.630   56.9898    0.2195   56.9747    0.2346   56.9855    0.2343   56.9794    0.2180   57.0277    0.2443   57.0256    0.2447
  0.640   57.0636    0.2235   57.0485    0.2389   57.0592    0.2387   57.0532    0.2220   57.1016    0.2488   57.0996    0.2492
  0.650   57.1388    0.2276   57.1237    0.2433   57.1344    0.2430   57.1284    0.2261   57.1769    0.2534   57.1749    0.2538
  0.660   57.2154    0.2318   57.2002    0.2477   57.2110    0.2474   57.2049    0.2302   57.2536    0.2580   57.2516    0.2584
  0.670   57.2934    0.2359   57.2781    0.2522   57.2889    0.2519   57.2829    0.2344   57.3317    0.2626   57.3297    0.2630
  0.680   57.3727    0.2401   57.3574    0.2566   57.3682    0.2563   57.3622    0.2385   57.4113    0.2673   57.4092    0.2677
  0.690   57.4535    0.2443   57.4381    0.2611   57.4490    0.2609   57.4430    0.2427   57.4922    0.2720   57.4901    0.2724
  0.700   57.5357    0.2486   57.5203    0.2657   57.5312    0.2654   57.5251    0.2470   57.5745    0.2767   57.5725    0.2771
  0.710   57.6193    0.2529   57.6039    0.2703   57.6148    0.2700   57.6088    0.2512   57.6583    0.2815   57.6563    0.2819
  0.720   57.7044    0.2572   57.6889    0.2749   57.6998    0.2746   57.6938    0.2555   57.7436    0.2863   57.7415    0.2867
  0.730   57.7910    0.2616   57.7754    0.2795   57.7864    0.2792   57.7804    0.2599   57.8303    0.2911   57.8282    0.2916
  0.740   57.8790    0.2660   57.8634    0.2842   57.8744    0.2839   57.8684    0.2643   57.9185    0.2960   57.9164    0.2965
  0.750   57.9685    0.2704   57.9528    0.2890   57.9638    0.2886   57.9579    0.2687   58.0081    0.3010   58.0061    0.3014
  0.760   58.0595    0.2749   58.0438    0.2937   58.0548    0.2934   58.0489    0.2731   58.0993    0.3059   58.0972    0.3064
  0.770   58.1520    0.2794   58.1362    0.2986   58.1473    0.2982   58.1414    0.2776   58.1920    0.3109   58.1899    0.3114
  0.780   58.2461    0.2840   58.2302    0.3034   58.2414    0.3031   58.2354    0.2822   58.2862    0.3160   58.2842    0.3165
  0.790   58.3417    0.2886   58.3258    0.3083   58.3369    0.3080   58.3310    0.2867   58.3820    0.3211   58.3799    0.3216
  0.800   58.4388    0.2932   58.4229    0.3133   58.4341    0.3129   58.4282    0.2914   58.4794    0.3263   58.4773    0.3268
  0.810   58.5376    0.2979   58.5216    0.3182   58.5328    0.3179   58.5269    0.2960   58.5783    0.3315   58.5762    0.3320
  0.820   58.6379    0.3026   58.6218    0.3233   58.6330    0.3229   58.6272    0.3007   58.6788    0.3367   58.6767    0.3372
  0.830   58.7398    0.3074   58.7237    0.3284   58.7349    0.3280   58.7291    0.3055   58.7809    0.3420   58.7788    0.3425
  0.840   58.8433    0.3122   58.8271    0.3335   58.8384    0.3331   58.8326    0.3103   58.8846    0.3474   58.8825    0.3479
  0.850   58.9485    0.3171   58.9322    0.3387   58.9436    0.3383   58.9378    0.3151   58.9900    0.3528   58.9879    0.3533
  0.860   59.0553    0.3220   59.0390    0.3439   59.0504    0.3435   59.0446    0.3200   59.0970    0.3582   59.0949    0.3587
  0.870   59.1638    0.3269   59.1474    0.3492   59.1588    0.3488   59.1530    0.3249   59.2057    0.3637   59.2036    0.3643
  0.880   59.2740    0.3319   59.2575    0.3545   59.2689    0.3541   59.2632    0.3299   59.3161    0.3693   59.3140    0.3698
  0.890   59.3859    0.3370   59.3693    0.3599   59.3808    0.3595   59.3751    0.3350   59.4281    0.3749   59.4261    0.3754
  0.900   59.4995    0.3421   59.4828    0.3653   59.4943    0.3649   59.4886    0.3400   59.5420    0.3806   59.5399    0.3811
  0.910   59.6148    0.3472   59.5981    0.3708   59.6096    0.3704   59.6040    0.3452   59.6575    0.3863   59.6554    0.3868
  0.920   59.7319    0.3525   59.7151    0.3764   59.7267    0.3760   59.7210    0.3504   59.7748    0.3921   59.7727    0.3926
  0.930   59.8507    0.3577   59.8339    0.3820   59.8455    0.3816   59.8399    0.3556   59.8939    0.3979   59.8918    0.3985
  0.940   59.9714    0.3630   59.9545    0.3876   59.9661    0.3872   59.9605    0.3609   60.0148    0.4038   60.0127    0.4044
  0.950   60.0939    0.3684   60.0769    0.3934   60.0886    0.3930   60.0830    0.3663   60.1375    0.4098   60.1354    0.4104
  0.960   60.2182    0.3739   60.2011    0.3992   60.2129    0.3988   60.2073    0.3717   60.2621    0.4158   60.2600    0.4164
  0.970   60.3444    0.3794   60.3272    0.4050   60.3390    0.4046   60.3334    0.3772   60.3885    0.4219   60.3864    0.4225
  0.980   60.4724    0.3849   60.4552    0.4109   60.4670    0.4105   60.4615    0.3827   60.5168    0.4281   60.5146    0.4287
  0.990   60.6023    0.3905   60.5850    0.4169   60.5969    0.4165   60.5914    0.3883   60.6470    0.4343   60.6448    0.4349
  1.000   60.7342    0.3962   60.7168    0.4229   60.7287    0.4225   60.7232    0.3940   60.7791    0.4406   60.7770    0.4413
  1.010   60.8680    0.4020   60.8505    0.4291   60.8625    0.4286   60.8570    0.3997   60.9131    0.4470   60.9110    0.4476
  1.020   61.0038    0.4078   60.9862    0.4352   60.9982    0.4348   60.9928    0.4055   61.0492    0.4535   61.0471    0.4541
  1.030   61.1415    0.4136   61.1239    0.4415   61.1359    0.4411   61.1305    0.4114   61.1872    0.4600   61.1851    0.4606
  1.040   61.2813    0.4196   61.2636    0.4478   61.2757    0.4474   61.2703    0.4173   61.3273    0.4666   61.3251    0.4672
  1.050   61.4231    0.4256   61.4053    0.4542   61.4174    0.4538   61.4121    0.4233   61.4694    0.4733   61.4672    0.4739
  1.060   61.5670    0.4317   61.5491    0.4607   61.5613    0.4603   61.5560    0.4294   61.6135    0.4800   61.6114    0.4807
  1.070   61.7130    0.4379   61.6950    0.4672   61.7072    0.4668   61.7019    0.4356   61.7598    0.4868   61.7576    0.4875
  1.080   61.8611    0.4441   61.8430    0.4739   61.8552    0.4734   61.8500    0.4418   61.9081    0.4938   61.9060    0.4944
  1.090   62.0113    0.4504   61.9931    0.4806   62.0054    0.4801   62.0002    0.4481   62.0587    0.5008   62.0565    0.5014
  1.100   62.1637    0.4568   62.1454    0.4874   62.1577    0.4869   62.1526    0.4545   62.2114    0.5079   62.2092    0.5085
  1.110   62.3183    0.4633   62.2999    0.4943   62.3123    0.4938   62.3072    0.4609   62.3663    0.5150   62.3641    0.5157
  1.120   62.4751    0.4698   62.4566    0.5012   62.4691    0.5008   62.4640    0.4675   62.5234    0.5223   62.5213    0.5230
  1.130   62.6342    0.4765   62.6156    0.5083   62.6281    0.5078   62.6230    0.4741   62.6828    0.5297   62.6807    0.5304
  1.140   62.7955    0.4832   62.7768    0.5154   62.7894    0.5150   62.7844    0.4808   62.8445    0.5371   62.8424    0.5378
  1.150   62.9592    0.4900   62.9404    0.5227   62.9530    0.5222   62.9480    0.4876   63.0085    0.5447   63.0064    0.5454
  1.160   63.1252    0.4969   63.1063    0.5300   63.1190    0.5295   63.1140    0.4945   63.1749    0.5523   63.1727    0.5530
  1.170   63.2937    0.5039   63.2746    0.5374   63.2873    0.5369   63.2824    0.5015   63.3436    0.5601   63.3415    0.5608
  1.180   63.4645    0.5110   63.4453    0.5449   63.4581    0.5444   63.4532    0.5086   63.5148    0.5679   63.5126    0.5686
  1.190   63.6377    0.5181   63.6185    0.5525   63.6313    0.5521   63.6265    0.5157   63.6884    0.5759   63.6862    0.5766
  1.200   63.8135    0.5254   63.7941    0.5603   63.8070    0.5598   63.8022    0.5230   63.8645    0.5839   63.8623    0.5846
  1.210   63.9917    0.5328   63.9722    0.5681   63.9852    0.5676   63.9805    0.5304   64.0431    0.5921   64.0410    0.5928
  1.220   64.1725    0.5403   64.1529    0.5760   64.1659    0.5755   64.1613    0.5378   64.2243    0.6004   64.2221    0.6011
  1.230   64.3559    0.5478   64.3362    0.5841   64.3492    0.5836   64.3446    0.5454   64.4081    0.6088   64.4059    0.6095
  1.240   64.5419    0.5555   64.5221    0.5922   64.5352    0.5917   64.5306    0.5531   64.5945    0.6173   64.5923    0.6180
  1.250   64.7306    0.5633   64.7106    0.6005   64.7238    0.6000   64.7193    0.5609   64.7835    0.6259   64.7814    0.6267
  1.260   64.9220    0.5712   64.9019    0.6089   64.9151    0.6084   64.9107    0.5688   64.9753    0.6347   64.9731    0.6354
  1.270   65.1161    0.5792   65.0959    0.6174   65.1092    0.6169   65.1048    0.5768   65.1698    0.6435   65.1677    0.6443
  1.280   65.3130    0.5874   65.2926    0.6260   65.3060    0.6255   65.3017    0.5849   65.3671    0.6525   65.3650    0.6533
  1.290   65.5127    0.5956   65.4922    0.6348   65.5057    0.6342   65.5014    0.5932   65.5673    0.6617   65.5651    0.6624
  1.300   65.7153    0.6040   65.6947    0.6436   65.7082    0.6431   65.7040    0.6015   65.7703    0.6709   65.7681    0.6717
  1.310   65.9208    0.6125   65.9001    0.6526   65.9136    0.6521   65.9095    0.6100   65.9762    0.6803   65.9741    0.6811
  1.320   66.1293    0.6211   66.1084    0.6618   66.1220    0.6613   66.1179    0.6187   66.1851    0.6899   66.1830    0.6907
  1.330   66.3407    0.6299   66.3197    0.6711   66.3334    0.6705   66.3294    0.6274   66.3971    0.6996   66.3949    0.7004
  1.340   66.5552    0.6387   66.5340    0.6805   66.5478    0.6799   66.5439    0.6363   66.6120    0.7094   66.6098    0.7102
  1.350   66.7728    0.6478   66.7515    0.6900   66.7653    0.6895   66.7614    0.6453   66.8301    0.7194   66.8279    0.7202
  1.360   66.9936    0.6569   66.9721    0.6998   66.9860    0.6992   66.9822    0.6545   67.0513    0.7295   67.0491    0.7303
  1.370   67.2175    0.6662   67.1959    0.7096   67.2099    0.7091   67.2061    0.6638   67.2757    0.7398   67.2736    0.7406
  1.380   67.4447    0.6757   67.4229    0.7196   67.4370    0.7191   67.4333    0.6733   67.5034    0.7503   67.5013    0.7511
  1.390   67.6752    0.6853   67.6533    0.7298   67.6674    0.7292   67.6638    0.6829   67.7344    0.7609   67.7322    0.7617
  1.400   67.9091    0.6950   67.8869    0.7401   67.9011    0.7396   67.8977    0.6926   67.9688    0.7717   67.9666    0.7725
  1.410   68.1463    0.7049   68.1240    0.7506   68.1383    0.7501   68.1349    0.7026   68.2066    0.7827   68.2044    0.7835
  1.420   68.3871    0.7150   68.3646    0.7613   68.3790    0.7607   68.3756    0.7126   68.4478    0.7938   68.4457    0.7946
  1.430   68.6313    0.7252   68.6087    0.7721   68.6231    0.7716   68.6199    0.7229   68.6926    0.8051   68.6905    0.8060
  1.440   68.8792    0.7356   68.8564    0.7831   68.8709    0.7826   68.8677    0.7333   68.9410    0.8166   68.9388    0.8175
  1.450   69.1307    0.7462   69.1077    0.7943   69.1223    0.7938   69.1192    0.7439   69.1931    0.8283   69.1909    0.8292
  1.460   69.3859    0.7570   69.3627    0.8057   69.3774    0.8051   69.3745    0.7547   69.4489    0.8402   69.4467    0.8411
  1.470   69.6449    0.7679   69.6215    0.8173   69.6363    0.8167   69.6334    0.7656   69.7084    0.8523   69.7062    0.8531
  1.480   69.9077    0.7790   69.8841    0.8291   69.8990    0.8285   69.8963    0.7768   69.9718    0.8646   69.9697    0.8654
