# Macroscopic dielectric function obtained with the BS equation.
#  RPA L0 with KS energies and KS wavefunctions     LOCAL FIELD EFFECTS INCLUDED
# RESONANT-ONLY calculation
# Coulomb term constructed with full W(G1,G2)
# Scissor operator energy =  0.8000 [eV]
# Tolerance = -0.0010 0.0000
# npweps  = 113
# npwwfn  = 259
# nbands  = 8
# loband  = 2
# nkibz   = 3
# nkbz    = 8
# Lorentzian broadening =  0.0001 [eV]
# List of q-points for the optical limit:
# q =  0.938821, 0.000000, 0.000000, [Reduced coords] 
# q =  0.000000, 0.938821, 0.000000, [Reduced coords] 
# q =  0.000000, 0.000000, 0.938821, [Reduced coords] 
# q =  0.000000, 0.813043, 0.813043, [Reduced coords] 
# q =  0.813043, 0.000000, 0.813043, [Reduced coords] 
# q =  0.813043, 0.813043, 0.000000, [Reduced coords] 
# omega [eV]    RE(eps(q=1)) IM(eps(q=1) RE(eps(q=2) ) ... 
  0.000   28.3725    0.6928   28.3453    0.7436   28.3510    0.7417   28.3603    0.6891   28.3993    0.7509   28.3972    0.7538
  0.010   28.4600    0.6972   28.4326    0.7483   28.4383    0.7464   28.4477    0.6934   28.4869    0.7556   28.4848    0.7586
  0.020   28.5480    0.7016   28.5204    0.7530   28.5262    0.7511   28.5356    0.6978   28.5751    0.7604   28.5729    0.7634
  0.030   28.6365    0.7060   28.6088    0.7577   28.6146    0.7558   28.6241    0.7023   28.6638    0.7652   28.6617    0.7682
  0.040   28.7257    0.7106   28.6978    0.7625   28.7036    0.7606   28.7133    0.7068   28.7532    0.7701   28.7510    0.7731
  0.050   28.8154    0.7151   28.7874    0.7674   28.7932    0.7655   28.8029    0.7113   28.8431    0.7750   28.8409    0.7780
  0.060   28.9058    0.7197   28.8776    0.7723   28.8834    0.7703   28.8932    0.7159   28.9336    0.7800   28.9314    0.7829
  0.070   28.9967    0.7243   28.9683    0.7772   28.9742    0.7753   28.9841    0.7205   29.0247    0.7850   29.0225    0.7879
  0.080   29.0882    0.7290   29.0597    0.7822   29.0656    0.7802   29.0756    0.7252   29.1164    0.7900   29.1142    0.7930
  0.090   29.1804    0.7337   29.1516    0.7872   29.1576    0.7853   29.1677    0.7299   29.2087    0.7951   29.2065    0.7981
  0.100   29.2731    0.7385   29.2442    0.7923   29.2502    0.7904   29.2604    0.7347   29.3016    0.8003   29.2994    0.8033
  0.110   29.3665    0.7433   29.3374    0.7974   29.3434    0.7955   29.3537    0.7395   29.3952    0.8055   29.3930    0.8085
  0.120   29.4605    0.7482   29.4312    0.8026   29.4372    0.8007   29.4476    0.7443   29.4894    0.8107   29.4871    0.8138
  0.130   29.5551    0.7531   29.5257    0.8079   29.5317    0.8059   29.5422    0.7492   29.5842    0.8160   29.5819    0.8191
  0.140   29.6504    0.7581   29.6208    0.8132   29.6268    0.8112   29.6375    0.7542   29.6797    0.8214   29.6774    0.8245
  0.150   29.7464    0.7631   29.7165    0.8185   29.7226    0.8165   29.7333    0.7592   29.7758    0.8268   29.7735    0.8299
  0.160   29.8429    0.7682   29.8129    0.8239   29.8190    0.8219   29.8299    0.7642   29.8725    0.8323   29.8703    0.8354
  0.170   29.9402    0.7733   29.9100    0.8293   29.9161    0.8273   29.9270    0.7693   29.9700    0.8378   29.9677    0.8409
  0.180   30.0381    0.7784   30.0077    0.8349   30.0139    0.8328   30.0249    0.7745   30.0681    0.8434   30.0658    0.8465
  0.190   30.1367    0.7837   30.1061    0.8404   30.1123    0.8384   30.1234    0.7797   30.1668    0.8490   30.1646    0.8521
  0.200   30.2359    0.7889   30.2052    0.8460   30.2114    0.8440   30.2226    0.7850   30.2663    0.8547   30.2640    0.8578
  0.210   30.3359    0.7943   30.3049    0.8517   30.3112    0.8497   30.3225    0.7903   30.3665    0.8605   30.3642    0.8636
  0.220   30.4365    0.7997   30.4054    0.8574   30.4117    0.8554   30.4231    0.7957   30.4673    0.8663   30.4650    0.8694
  0.230   30.5379    0.8051   30.5065    0.8632   30.5128    0.8612   30.5244    0.8011   30.5689    0.8722   30.5665    0.8753
  0.240   30.6400    0.8106   30.6084    0.8691   30.6147    0.8670   30.6264    0.8066   30.6711    0.8781   30.6688    0.8813
  0.250   30.7428    0.8162   30.7110    0.8750   30.7173    0.8729   30.7292    0.8121   30.7741    0.8841   30.7718    0.8873
  0.260   30.8463    0.8218   30.8143    0.8810   30.8207    0.8789   30.8326    0.8177   30.8778    0.8902   30.8755    0.8933
  0.270   30.9505    0.8274   30.9183    0.8870   30.9247    0.8849   30.9368    0.8234   30.9823    0.8963   30.9799    0.8995
  0.280   31.0555    0.8332   31.0231    0.8931   31.0295    0.8910   31.0417    0.8291   31.0875    0.9025   31.0851    0.9057
  0.290   31.1612    0.8390   31.1286    0.8993   31.1351    0.8972   31.1474    0.8349   31.1935    0.9087   31.1911    0.9119
  0.300   31.2677    0.8448   31.2349    0.9055   31.2414    0.9034   31.2538    0.8408   31.3002    0.9151   31.2978    0.9183
  0.310   31.3750    0.8508   31.3419    0.9118   31.3485    0.9097   31.3610    0.8467   31.4076    0.9214   31.4052    0.9247
  0.320   31.4830    0.8567   31.4498    0.9182   31.4563    0.9161   31.4690    0.8526   31.5159    0.9279   31.5135    0.9311
  0.330   31.5919    0.8628   31.5584    0.9246   31.5650    0.9225   31.5778    0.8587   31.6249    0.9344   31.6225    0.9377
  0.340   31.7015    0.8689   31.6677    0.9311   31.6744    0.9290   31.6873    0.8648   31.7348    0.9410   31.7324    0.9443
  0.350   31.8119    0.8751   31.7779    0.9377   31.7846    0.9356   31.7977    0.8709   31.8454    0.9477   31.8430    0.9510
  0.360   31.9231    0.8813   31.8889    0.9443   31.8956    0.9422   31.9089    0.8772   31.9569    0.9544   31.9544    0.9577
  0.370   32.0351    0.8876   32.0007    0.9510   32.0075    0.9489   32.0208    0.8835   32.0691    0.9612   32.0667    0.9645
  0.380   32.1480    0.8940   32.1134    0.9578   32.1201    0.9557   32.1336    0.8898   32.1822    0.9681   32.1798    0.9714
  0.390   32.2617    0.9005   32.2268    0.9647   32.2336    0.9625   32.2473    0.8963   32.2962    0.9751   32.2937    0.9784
  0.400   32.3763    0.9070   32.3411    0.9716   32.3480    0.9695   32.3618    0.9028   32.4110    0.9821   32.4085    0.9854
  0.410   32.4917    0.9136   32.4563    0.9786   32.4632    0.9765   32.4771    0.9094   32.5266    0.9892   32.5241    0.9926
  0.420   32.6079    0.9203   32.5723    0.9857   32.5792    0.9836   32.5933    0.9160   32.6431    0.9964   32.6406    0.9998
  0.430   32.7251    0.9270   32.6892    0.9929   32.6962    0.9907   32.7104    0.9228   32.7605    1.0037   32.7580    1.0071
  0.440   32.8431    0.9338   32.8070    1.0001   32.8140    0.9980   32.8284    0.9296   32.8788    1.0111   32.8763    1.0144
  0.450   32.9621    0.9407   32.9257    1.0075   32.9327    1.0053   32.9472    0.9365   32.9980    1.0185   32.9955    1.0219
  0.460   33.0819    0.9477   33.0453    1.0149   33.0523    1.0127   33.0670    0.9434   33.1181    1.0260   33.1156    1.0294
  0.470   33.2026    0.9548   33.1658    1.0224   33.1728    1.0202   33.1877    0.9505   33.2391    1.0336   33.2366    1.0370
  0.480   33.3243    0.9619   33.2872    1.0300   33.2943    1.0278   33.3093    0.9576   33.3610    1.0413   33.3585    1.0447
  0.490   33.4469    0.9691   33.4096    1.0376   33.4167    1.0354   33.4319    0.9648   33.4839    1.0491   33.4814    1.0525
  0.500   33.5705    0.9764   33.5329    1.0454   33.5400    1.0432   33.5554    0.9721   33.6078    1.0570   33.6052    1.0604
  0.510   33.6950    0.9838   33.6571    1.0532   33.6643    1.0510   33.6798    0.9795   33.7326    1.0650   33.7300    1.0684
  0.520   33.8205    0.9913   33.7823    1.0612   33.7896    1.0589   33.8053    0.9869   33.8583    1.0730   33.8557    1.0764
  0.530   33.9470    0.9988   33.9085    1.0692   33.9158    1.0669   33.9317    0.9945   33.9851    1.0812   33.9825    1.0846
  0.540   34.0745    1.0065   34.0357    1.0773   34.0431    1.0751   34.0591    1.0021   34.1128    1.0894   34.1102    1.0929
  0.550   34.2030    1.0142   34.1639    1.0855   34.1713    1.0833   34.1875    1.0098   34.2416    1.0977   34.2390    1.1012
  0.560   34.3325    1.0220   34.2932    1.0938   34.3006    1.0916   34.3170    1.0177   34.3714    1.1062   34.3688    1.1097
  0.570   34.4630    1.0299   34.4234    1.1022   34.4308    1.1000   34.4474    1.0256   34.5022    1.1147   34.4996    1.1182
  0.580   34.5946    1.0380   34.5547    1.1107   34.5622    1.1085   34.5789    1.0336   34.6341    1.1234   34.6314    1.1269
  0.590   34.7272    1.0461   34.6870    1.1194   34.6945    1.1171   34.7115    1.0417   34.7670    1.1321   34.7644    1.1356
  0.600   34.8609    1.0543   34.8204    1.1281   34.8280    1.1258   34.8451    1.0499   34.9010    1.1409   34.8984    1.1445
  0.610   34.9957    1.0626   34.9549    1.1369   34.9625    1.1346   34.9799    1.0582   35.0361    1.1499   35.0334    1.1534
  0.620   35.1316    1.0710   35.0905    1.1458   35.0981    1.1435   35.1157    1.0666   35.1723    1.1589   35.1696    1.1625
  0.630   35.2686    1.0795   35.2272    1.1548   35.2348    1.1525   35.2526    1.0751   35.3096    1.1681   35.3069    1.1717
  0.640   35.4067    1.0881   35.3650    1.1640   35.3727    1.1616   35.3906    1.0837   35.4480    1.1774   35.4453    1.1810
  0.650   35.5459    1.0968   35.5039    1.1732   35.5117    1.1709   35.5298    1.0924   35.5876    1.1868   35.5849    1.1904
  0.660   35.6863    1.1056   35.6440    1.1826   35.6518    1.1802   35.6701    1.1012   35.7283    1.1963   35.7256    1.1999
  0.670   35.8279    1.1145   35.7852    1.1920   35.7931    1.1897   35.8116    1.1101   35.8702    1.2059   35.8675    1.2095
  0.680   35.9707    1.1236   35.9277    1.2016   35.9355    1.1993   35.9543    1.1191   36.0132    1.2157   36.0105    1.2193
  0.690   36.1146    1.1327   36.0713    1.2113   36.0792    1.2090   36.0982    1.1283   36.1575    1.2255   36.1548    1.2291
  0.700   36.2598    1.1420   36.2161    1.2212   36.2240    1.2188   36.2433    1.1375   36.3030    1.2355   36.3003    1.2391
  0.710   36.4061    1.1514   36.3621    1.2311   36.3701    1.2287   36.3896    1.1469   36.4497    1.2456   36.4470    1.2492
  0.720   36.5538    1.1609   36.5094    1.2412   36.5174    1.2388   36.5371    1.1564   36.5977    1.2558   36.5949    1.2595
  0.730   36.7026    1.1705   36.6579    1.2514   36.6660    1.2490   36.6859    1.1660   36.7469    1.2662   36.7441    1.2699
  0.740   36.8528    1.1803   36.8077    1.2617   36.8159    1.2593   36.8360    1.1758   36.8974    1.2767   36.8946    1.2804
  0.750   37.0042    1.1901   36.9588    1.2722   36.9670    1.2698   36.9874    1.1856   37.0492    1.2873   37.0464    1.2910
  0.760   37.1570    1.2001   37.1112    1.2828   37.1194    1.2804   37.1401    1.1956   37.2023    1.2981   37.1995    1.3018
  0.770   37.3111    1.2102   37.2649    1.2935   37.2732    1.2911   37.2941    1.2057   37.3568    1.3090   37.3539    1.3127
  0.780   37.4665    1.2205   37.4200    1.3044   37.4283    1.3019   37.4494    1.2160   37.5125    1.3201   37.5097    1.3238
  0.790   37.6232    1.2309   37.5764    1.3154   37.5847    1.3130   37.6061    1.2264   37.6697    1.3312   37.6669    1.3350
  0.800   37.7814    1.2414   37.7342    1.3265   37.7426    1.3241   37.7642    1.2369   37.8282    1.3426   37.8254    1.3463
  0.810   37.9410    1.2521   37.8933    1.3378   37.9018    1.3354   37.9237    1.2475   37.9882    1.3541   37.9853    1.3578
  0.820   38.1019    1.2629   38.0539    1.3493   38.0624    1.3468   38.0846    1.2583   38.1495    1.3657   38.1467    1.3695
  0.830   38.2643    1.2738   38.2159    1.3609   38.2245    1.3584   38.2469    1.2693   38.3123    1.3775   38.3094    1.3812
  0.840   38.4282    1.2849   38.3794    1.3726   38.3880    1.3701   38.4107    1.2804   38.4766    1.3894   38.4737    1.3932
  0.850   38.5935    1.2962   38.5443    1.3845   38.5529    1.3820   38.5760    1.2916   38.6423    1.4015   38.6394    1.4053
  0.860   38.7603    1.3075   38.7107    1.3966   38.7194    1.3941   38.7427    1.3030   38.8095    1.4138   38.8066    1.4176
  0.870   38.9287    1.3191   38.8786    1.4088   38.8874    1.4063   38.9110    1.3145   38.9783    1.4262   38.9754    1.4300
  0.880   39.0985    1.3308   39.0481    1.4212   39.0569    1.4187   39.0808    1.3262   39.1486    1.4388   39.1456    1.4426
  0.890   39.2700    1.3426   39.2191    1.4338   39.2279    1.4312   39.2521    1.3381   39.3204    1.4516   39.3175    1.4554
  0.900   39.4430    1.3547   39.3917    1.4465   39.4006    1.4440   39.4251    1.3501   39.4939    1.4645   39.4909    1.4684
  0.910   39.6176    1.3669   39.5659    1.4594   39.5748    1.4569   39.5996    1.3623   39.6689    1.4776   39.6660    1.4815
  0.920   39.7938    1.3792   39.7416    1.4725   39.7506    1.4699   39.7758    1.3747   39.8456    1.4909   39.8426    1.4948
  0.930   39.9717    1.3917   39.9191    1.4857   39.9281    1.4832   39.9536    1.3872   40.0239    1.5044   40.0209    1.5083
  0.940   40.1512    1.4044   40.0982    1.4992   40.1073    1.4966   40.1330    1.3999   40.2039    1.5181   40.2009    1.5220
  0.950   40.3325    1.4173   40.2789    1.5128   40.2881    1.5102   40.3142    1.4128   40.3856    1.5320   40.3826    1.5358
  0.960   40.5154    1.4304   40.4614    1.5266   40.4706    1.5240   40.4971    1.4258   40.5690    1.5460   40.5660    1.5499
  0.970   40.7001    1.4436   40.6457    1.5406   40.6549    1.5380   40.6817    1.4391   40.7542    1.5603   40.7512    1.5642
  0.980   40.8866    1.4570   40.8317    1.5548   40.8410    1.5522   40.8681    1.4525   40.9411    1.5747   40.9381    1.5786
  0.990   41.0749    1.4707   41.0194    1.5693   41.0288    1.5667   41.0563    1.4661   41.1299    1.5894   41.1268    1.5933
  1.000   41.2649    1.4845   41.2090    1.5839   41.2184    1.5813   41.2463    1.4800   41.3204    1.6043   41.3174    1.6082
  1.010   41.4569    1.4985   41.4005    1.5987   41.4099    1.5961   41.4381    1.4940   41.5129    1.6193   41.5098    1.6233
  1.020   41.6507    1.5127   41.5937    1.6137   41.6033    1.6111   41.6319    1.5082   41.7072    1.6347   41.7041    1.6386
  1.030   41.8464    1.5272   41.7889    1.6290   41.7985    1.6264   41.8275    1.5227   41.9034    1.6502   41.9003    1.6541
  1.040   42.0440    1.5418   41.9860    1.6445   41.9957    1.6418   42.0251    1.5373   42.1015    1.6659   42.0984    1.6699
  1.050   42.2436    1.5567   42.1851    1.6602   42.1948    1.6575   42.2246    1.5522   42.3016    1.6819   42.2986    1.6859
  1.060   42.4452    1.5718   42.3862    1.6761   42.3959    1.6735   42.4261    1.5673   42.5038    1.6981   42.5007    1.7021
  1.070   42.6488    1.5871   42.5892    1.6923   42.5990    1.6896   42.6296    1.5826   42.7079    1.7146   42.7048    1.7186
  1.080   42.8544    1.6026   42.7943    1.7087   42.8042    1.7060   42.8352    1.5981   42.9141    1.7313   42.9110    1.7353
  1.090   43.0621    1.6184   43.0015    1.7254   43.0114    1.7227   43.0428    1.6139   43.1224    1.7483   43.1192    1.7523
  1.100   43.2720    1.6344   43.2108    1.7423   43.2207    1.7396   43.2526    1.6299   43.3328    1.7655   43.3296    1.7695
  1.110   43.4840    1.6506   43.4222    1.7594   43.4322    1.7567   43.4645    1.6462   43.5453    1.7829   43.5422    1.7870
  1.120   43.6981    1.6671   43.6358    1.7769   43.6459    1.7742   43.6786    1.6627   43.7601    1.8007   43.7569    1.8047
  1.130   43.9145    1.6838   43.8515    1.7945   43.8617    1.7918   43.8949    1.6795   43.9770    1.8187   43.9739    1.8227
  1.140   44.1331    1.7009   44.0696    1.8125   44.0798    1.8098   44.1135    1.6965   44.1963    1.8370   44.1931    1.8410
  1.150   44.3540    1.7181   44.2899    1.8307   44.3002    1.8280   44.3343    1.7138   44.4178    1.8555   44.4146    1.8596
  1.160   44.5773    1.7357   44.5125    1.8493   44.5228    1.8465   44.5575    1.7313   44.6416    1.8744   44.6384    1.8785
  1.170   44.8029    1.7535   44.7374    1.8681   44.7479    1.8653   44.7830    1.7492   44.8678    1.8936   44.8646    1.8976
  1.180   45.0308    1.7716   44.9648    1.8872   44.9753    1.8844   45.0109    1.7673   45.0964    1.9130   45.0932    1.9171
  1.190   45.2613    1.7900   45.1946    1.9066   45.2051    1.9038   45.2413    1.7857   45.3275    1.9328   45.3243    1.9369
  1.200   45.4941    1.8086   45.4268    1.9263   45.4374    1.9235   45.4741    1.8044   45.5610    1.9529   45.5578    1.9570
  1.210   45.7295    1.8276   45.6615    1.9463   45.6722    1.9435   45.7094    1.8234   45.7971    1.9733   45.7939    1.9774
  1.220   45.9675    1.8469   45.8988    1.9667   45.9096    1.9639   45.9473    1.8427   46.0357    1.9940   46.0325    1.9981
  1.230   46.2080    1.8665   46.1387    1.9873   46.1495    1.9846   46.1878    1.8623   46.2770    2.0150   46.2737    2.0192
  1.240   46.4512    1.8864   46.3812    2.0083   46.3921    2.0056   46.4309    1.8823   46.5208    2.0364   46.5176    2.0406
  1.250   46.6971    1.9067   46.6263    2.0297   46.6373    2.0269   46.6767    1.9025   46.7674    2.0582   46.7642    2.0623
  1.260   46.9457    1.9272   46.8742    2.0514   46.8853    2.0486   46.9253    1.9232   47.0167    2.0803   47.0135    2.0845
  1.270   47.1971    1.9482   47.1249    2.0734   47.1360    2.0706   47.1766    1.9441   47.2689    2.1028   47.2656    2.1070
  1.280   47.4513    1.9694   47.3783    2.0959   47.3895    2.0931   47.4307    1.9654   47.5238    2.1256   47.5205    2.1298
  1.290   47.7084    1.9910   47.6347    2.1187   47.6459    2.1159   47.6878    1.9871   47.7816    2.1489   47.7783    2.1531
  1.300   47.9684    2.0130   47.8939    2.1418   47.9052    2.1390   47.9477    2.0091   48.0424    2.1725   48.0391    2.1767
  1.310   48.2314    2.0354   48.1561    2.1654   48.1675    2.1626   48.2106    2.0315   48.3061    2.1965   48.3028    2.2007
  1.320   48.4974    2.0582   48.4213    2.1894   48.4328    2.1866   48.4765    2.0543   48.5729    2.2210   48.5696    2.2252
  1.330   48.7664    2.0813   48.6896    2.2138   48.7011    2.2109   48.7456    2.0775   48.8428    2.2458   48.8394    2.2500
  1.340   49.0386    2.1048   48.9609    2.2386   48.9726    2.2357   49.0177    2.1011   49.1158    2.2711   49.1124    2.2753
  1.350   49.3140    2.1288   49.2355    2.2638   49.2472    2.2609   49.2930    2.1251   49.3920    2.2968   49.3886    2.3010
  1.360   49.5926    2.1531   49.5133    2.2895   49.5251    2.2866   49.5716    2.1495   49.6715    2.3230   49.6681    2.3272
  1.370   49.8746    2.1779   49.7943    2.3156   49.8062    2.3127   49.8535    2.1743   49.9542    2.3496   49.9509    2.3538
  1.380   50.1599    2.2032   50.0788    2.3421   50.0907    2.3393   50.1387    2.1996   50.2404    2.3767   50.2370    2.3809
  1.390   50.4486    2.2289   50.3666    2.3692   50.3786    2.3663   50.4274    2.2254   50.5300    2.4043   50.5266    2.4085
  1.400   50.7408    2.2550   50.6579    2.3967   50.6700    2.3938   50.7195    2.2516   50.8231    2.4324   50.8197    2.4366
  1.410   51.0365    2.2816   50.9527    2.4247   50.9649    2.4218   51.0152    2.2783   51.1197    2.4610   51.1163    2.4652
  1.420   51.3359    2.3087   51.2511    2.4533   51.2634    2.4504   51.3146    2.3054   51.4200    2.4901   51.4166    2.4943
  1.430   51.6389    2.3363   51.5532    2.4823   51.5656    2.4794   51.6176    2.3331   51.7240    2.5197   51.7206    2.5239
  1.440   51.9457    2.3645   51.8590    2.5119   51.8715    2.5090   51.9243    2.3613   52.0317    2.5499   52.0283    2.5541
  1.450   52.2563    2.3931   52.1686    2.5420   52.1812    2.5391   52.2349    2.3900   52.3433    2.5806   52.3399    2.5848
  1.460   52.5708    2.4222   52.4821    2.5727   52.4948    2.5698   52.5493    2.4192   52.6588    2.6119   52.6554    2.6161
  1.470   52.8893    2.4520   52.7996    2.6039   52.8123    2.6010   52.8678    2.4490   52.9783    2.6438   52.9749    2.6480
  1.480   53.2118    2.4822   53.1210    2.6358   53.1339    2.6328   53.1903    2.4794   53.3018    2.6763   53.2984    2.6805
