# Macroscopic dielectric function obtained with the BS equation.
#  RPA L0 with KS energies and KS wavefunctions     LOCAL FIELD EFFECTS INCLUDED
# RESONANT-ONLY calculation
# Coulomb term constructed with full W(G1,G2)
# Scissor operator energy =  0.8000 [eV]
# Tolerance = -0.0010 0.0000
# npweps  = 113
# npwwfn  = 259
# nbands  = 8
# loband  = 2
# nkibz   = 3
# nkbz    = 8
# Lorentzian broadening =  0.0001 [eV]
# List of q-points for the optical limit:
# q =  0.938821, 0.000000, 0.000000, [Reduced coords] 
# q =  0.000000, 0.938821, 0.000000, [Reduced coords] 
# q =  0.000000, 0.000000, 0.938821, [Reduced coords] 
# q =  0.000000, 0.813043, 0.813043, [Reduced coords] 
# q =  0.813043, 0.000000, 0.813043, [Reduced coords] 
# q =  0.813043, 0.813043, 0.000000, [Reduced coords] 
# omega [eV]    RE(eps(q=1)) IM(eps(q=1) RE(eps(q=2) ) ... 
  0.000   29.3054    1.6462   29.2285    1.7657   29.2358    1.7618   29.2784    1.6417   29.3470    1.7749   29.3421    1.7809
  0.010   29.3988    1.6570   29.3214    1.7772   29.3287    1.7732   29.3717    1.6525   29.4406    1.7865   29.4356    1.7926
  0.020   29.4928    1.6680   29.4148    1.7888   29.4222    1.7848   29.4655    1.6634   29.5348    1.7983   29.5298    1.8043
  0.030   29.5874    1.6790   29.5089    1.8005   29.5163    1.7965   29.5600    1.6744   29.6296    1.8101   29.6246    1.8162
  0.040   29.6826    1.6901   29.6036    1.8123   29.6110    1.8084   29.6551    1.6855   29.7251    1.8221   29.7201    1.8282
  0.050   29.7785    1.7014   29.6989    1.8243   29.7064    1.8203   29.7509    1.6968   29.8212    1.8342   29.8162    1.8403
  0.060   29.8750    1.7128   29.7949    1.8364   29.8024    1.8324   29.8473    1.7081   29.9180    1.8464   29.9130    1.8525
  0.070   29.9722    1.7242   29.8916    1.8486   29.8991    1.8445   29.9444    1.7196   30.0154    1.8587   30.0104    1.8648
  0.080   30.0701    1.7358   29.9889    1.8609   29.9964    1.8568   30.0421    1.7312   30.1135    1.8712   30.1085    1.8773
  0.090   30.1686    1.7476   30.0869    1.8733   30.0944    1.8693   30.1405    1.7429   30.2123    1.8837   30.2072    1.8899
  0.100   30.2678    1.7594   30.1855    1.8859   30.1931    1.8818   30.2396    1.7547   30.3117    1.8965   30.3067    1.9026
  0.110   30.3677    1.7714   30.2848    1.8986   30.2925    1.8945   30.3393    1.7667   30.4119    1.9093   30.4068    1.9155
  0.120   30.4683    1.7835   30.3848    1.9114   30.3925    1.9073   30.4398    1.7788   30.5127    1.9223   30.5076    1.9285
  0.130   30.5695    1.7957   30.4855    1.9244   30.4932    1.9203   30.5410    1.7910   30.6142    1.9354   30.6091    1.9416
  0.140   30.6715    1.8080   30.5869    1.9375   30.5947    1.9334   30.6428    1.8033   30.7165    1.9487   30.7113    1.9549
  0.150   30.7742    1.8205   30.6890    1.9507   30.6968    1.9466   30.7454    1.8158   30.8195    1.9620   30.8143    1.9683
  0.160   30.8776    1.8331   30.7919    1.9641   30.7997    1.9600   30.8487    1.8284   30.9231    1.9756   30.9179    1.9819
  0.170   30.9818    1.8458   30.8954    1.9776   30.9032    1.9735   30.9527    1.8411   31.0276    1.9893   31.0223    1.9956
  0.180   31.0867    1.8587   30.9997    1.9913   31.0076    1.9871   31.0575    1.8540   31.1327    2.0031   31.1275    2.0094
  0.190   31.1923    1.8717   31.1047    2.0051   31.1126    2.0009   31.1630    1.8670   31.2386    2.0170   31.2334    2.0234
  0.200   31.2987    1.8849   31.2105    2.0190   31.2184    2.0148   31.2692    1.8801   31.3453    2.0311   31.3400    2.0375
  0.210   31.4059    1.8982   31.3170    2.0331   31.3250    2.0289   31.3762    1.8934   31.4527    2.0454   31.4474    2.0518
  0.220   31.5138    1.9116   31.4243    2.0474   31.4323    2.0431   31.4840    1.9068   31.5609    2.0598   31.5556    2.0662
  0.230   31.6225    1.9252   31.5323    2.0618   31.5404    2.0575   31.5926    1.9204   31.6699    2.0744   31.6646    2.0808
  0.240   31.7320    1.9389   31.6412    2.0763   31.6492    2.0721   31.7020    1.9341   31.7797    2.0891   31.7743    2.0956
  0.250   31.8422    1.9528   31.7508    2.0910   31.7589    2.0868   31.8121    1.9479   31.8902    2.1040   31.8849    2.1105
  0.260   31.9533    1.9668   31.8612    2.1059   31.8694    2.1016   31.9230    1.9620   32.0016    2.1191   31.9962    2.1255
  0.270   32.0652    1.9810   31.9724    2.1209   31.9806    2.1166   32.0348    1.9761   32.1138    2.1343   32.1084    2.1408
  0.280   32.1779    1.9953   32.0845    2.1361   32.0927    2.1318   32.1474    1.9905   32.2268    2.1497   32.2214    2.1562
  0.290   32.2915    2.0098   32.1973    2.1515   32.2056    2.1472   32.2608    2.0050   32.3406    2.1652   32.3352    2.1718
  0.300   32.4059    2.0245   32.3110    2.1670   32.3193    2.1627   32.3750    2.0196   32.4553    2.1810   32.4499    2.1875
  0.310   32.5211    2.0393   32.4256    2.1827   32.4339    2.1784   32.4901    2.0344   32.5709    2.1969   32.5654    2.2034
  0.320   32.6372    2.0543   32.5410    2.1986   32.5493    2.1942   32.6061    2.0494   32.6873    2.2129   32.6818    2.2195
  0.330   32.7542    2.0694   32.6572    2.2147   32.6656    2.2103   32.7229    2.0645   32.8046    2.2292   32.7990    2.2358
  0.340   32.8720    2.0848   32.7743    2.2309   32.7827    2.2265   32.8406    2.0799   32.9227    2.2456   32.9172    2.2523
  0.350   32.9908    2.1003   32.8923    2.2473   32.9008    2.2429   32.9592    2.0953   33.0418    2.2623   33.0362    2.2689
  0.360   33.1104    2.1159   33.0112    2.2639   33.0197    2.2595   33.0787    2.1110   33.1617    2.2791   33.1561    2.2857
  0.370   33.2309    2.1318   33.1310    2.2807   33.1395    2.2763   33.1991    2.1269   33.2826    2.2961   33.2770    2.3028
  0.380   33.3524    2.1478   33.2517    2.2977   33.2603    2.2932   33.3204    2.1429   33.4044    2.3133   33.3987    2.3200
  0.390   33.4748    2.1641   33.3733    2.3149   33.3819    2.3104   33.4427    2.1591   33.5271    2.3307   33.5214    2.3374
  0.400   33.5981    2.1805   33.4959    2.3322   33.5045    2.3277   33.5659    2.1755   33.6507    2.3483   33.6451    2.3550
  0.410   33.7224    2.1971   33.6194    2.3498   33.6281    2.3453   33.6900    2.1921   33.7754    2.3661   33.7697    2.3728
  0.420   33.8477    2.2139   33.7438    2.3676   33.7526    2.3630   33.8151    2.2089   33.9009    2.3841   33.8952    2.3908
  0.430   33.9739    2.2308   33.8692    2.3855   33.8780    2.3810   33.9412    2.2259   34.0275    2.4023   34.0218    2.4091
  0.440   34.1011    2.2480   33.9956    2.4037   34.0044    2.3992   34.0682    2.2430   34.1551    2.4207   34.1493    2.4275
  0.450   34.2293    2.2654   34.1230    2.4221   34.1319    2.4176   34.1963    2.2604   34.2836    2.4394   34.2778    2.4462
  0.460   34.3585    2.2830   34.2514    2.4407   34.2603    2.4362   34.3254    2.2780   34.4132    2.4582   34.4074    2.4651
  0.470   34.4888    2.3008   34.3808    2.4596   34.3897    2.4550   34.4554    2.2958   34.5438    2.4773   34.5379    2.4842
  0.480   34.6200    2.3188   34.5112    2.4786   34.5202    2.4740   34.5866    2.3138   34.6754    2.4966   34.6695    2.5035
  0.490   34.7523    2.3371   34.6427    2.4979   34.6517    2.4933   34.7187    2.3321   34.8081    2.5162   34.8022    2.5231
  0.500   34.8857    2.3555   34.7752    2.5174   34.7842    2.5128   34.8519    2.3505   34.9418    2.5360   34.9359    2.5429
  0.510   35.0202    2.3742   34.9087    2.5372   34.9178    2.5325   34.9862    2.3692   35.0766    2.5560   35.0707    2.5629
  0.520   35.1557    2.3931   35.0433    2.5571   35.0525    2.5525   35.1216    2.3881   35.2125    2.5762   35.2066    2.5832
  0.530   35.2923    2.4122   35.1791    2.5774   35.1882    2.5727   35.2581    2.4072   35.3495    2.5967   35.3435    2.6037
  0.540   35.4301    2.4316   35.3159    2.5978   35.3251    2.5931   35.3957    2.4266   35.4876    2.6175   35.4816    2.6245
  0.550   35.5689    2.4512   35.4538    2.6185   35.4631    2.6138   35.5344    2.4462   35.6269    2.6385   35.6209    2.6455
  0.560   35.7089    2.4710   35.5929    2.6395   35.6022    2.6348   35.6742    2.4660   35.7673    2.6598   35.7612    2.6668
  0.570   35.8501    2.4911   35.7331    2.6607   35.7424    2.6560   35.8152    2.4861   35.9088    2.6813   35.9028    2.6884
  0.580   35.9924    2.5115   35.8744    2.6822   35.8838    2.6775   35.9574    2.5064   36.0515    2.7031   36.0454    2.7102
  0.590   36.1359    2.5321   36.0170    2.7040   36.0264    2.6992   36.1007    2.5270   36.1954    2.7252   36.1893    2.7323
  0.600   36.2806    2.5529   36.1607    2.7260   36.1702    2.7212   36.2453    2.5479   36.3405    2.7475   36.3344    2.7546
  0.610   36.4265    2.5740   36.3056    2.7483   36.3151    2.7435   36.3910    2.5690   36.4869    2.7701   36.4807    2.7773
  0.620   36.5737    2.5954   36.4517    2.7709   36.4613    2.7661   36.5380    2.5904   36.6344    2.7930   36.6282    2.8002
  0.630   36.7221    2.6171   36.5991    2.7937   36.6087    2.7889   36.6862    2.6120   36.7832    2.8162   36.7770    2.8234
  0.640   36.8717    2.6390   36.7477    2.8169   36.7573    2.8120   36.8357    2.6340   36.9333    2.8397   36.9270    2.8469
  0.650   37.0226    2.6612   36.8975    2.8403   36.9072    2.8355   36.9864    2.6562   37.0846    2.8635   37.0784    2.8707
  0.660   37.1748    2.6837   37.0487    2.8641   37.0584    2.8592   37.1385    2.6787   37.2372    2.8876   37.2310    2.8948
  0.670   37.3283    2.7065   37.2011    2.8881   37.2109    2.8832   37.2918    2.7015   37.3912    2.9120   37.3849    2.9193
  0.680   37.4832    2.7296   37.3549    2.9125   37.3647    2.9076   37.4465    2.7246   37.5465    2.9368   37.5402    2.9440
  0.690   37.6394    2.7530   37.5099    2.9372   37.5198    2.9322   37.6025    2.7480   37.7031    2.9618   37.6968    2.9691
  0.700   37.7969    2.7766   37.6664    2.9622   37.6763    2.9572   37.7599    2.7717   37.8611    2.9872   37.8547    2.9945
  0.710   37.9558    2.8007   37.8242    2.9875   37.8341    2.9825   37.9187    2.7957   38.0205    3.0129   38.0141    3.0202
  0.720   38.1162    2.8250   37.9833    3.0131   37.9933    3.0081   38.0788    2.8200   38.1812    3.0389   38.1748    3.0463
  0.730   38.2779    2.8496   38.1439    3.0391   38.1540    3.0341   38.2404    2.8447   38.3434    3.0653   38.3370    3.0727
  0.740   38.4411    2.8746   38.3059    3.0654   38.3160    3.0604   38.4034    2.8697   38.5071    3.0921   38.5006    3.0994
  0.750   38.6057    2.8999   38.4693    3.0921   38.4795    3.0871   38.5678    2.8950   38.6722    3.1192   38.6657    3.1266
  0.760   38.7718    2.9255   38.6342    3.1192   38.6444    3.1141   38.7337    2.9206   38.8387    3.1466   38.8322    3.1540
  0.770   38.9394    2.9515   38.8005    3.1466   38.8108    3.1415   38.9011    2.9467   39.0068    3.1745   39.0003    3.1819
  0.780   39.1085    2.9779   38.9684    3.1743   38.9787    3.1692   39.0701    2.9730   39.1764    3.2027   39.1698    3.2101
  0.790   39.2791    3.0046   39.1377    3.2025   39.1481    3.1974   39.2405    2.9997   39.3475    3.2313   39.3409    3.2387
  0.800   39.4513    3.0317   39.3086    3.2310   39.3190    3.2259   39.4125    3.0268   39.5202    3.2603   39.5136    3.2677
  0.810   39.6250    3.0591   39.4811    3.2599   39.4916    3.2548   39.5861    3.0543   39.6944    3.2897   39.6878    3.2971
  0.820   39.8004    3.0870   39.6551    3.2892   39.6656    3.2841   39.7613    3.0822   39.8703    3.3194   39.8637    3.3270
  0.830   39.9774    3.1152   39.8308    3.3190   39.8413    3.3138   39.9381    3.1104   40.0478    3.3497   40.0411    3.3572
  0.840   40.1560    3.1438   40.0080    3.3491   40.0187    3.3439   40.1165    3.1390   40.2269    3.3803   40.2202    3.3878
  0.850   40.3363    3.1728   40.1869    3.3796   40.1976    3.3744   40.2966    3.1681   40.4077    3.4113   40.4010    3.4189
  0.860   40.5183    3.2022   40.3675    3.4106   40.3782    3.4054   40.4784    3.1975   40.5902    3.4428   40.5835    3.4504
  0.870   40.7019    3.2321   40.5498    3.4420   40.5606    3.4368   40.6619    3.2274   40.7745    3.4748   40.7677    3.4824
  0.880   40.8874    3.2624   40.7338    3.4739   40.7446    3.4686   40.8472    3.2577   40.9604    3.5072   40.9536    3.5148
  0.890   41.0746    3.2931   40.9195    3.5062   40.9304    3.5009   41.0342    3.2884   41.1482    3.5400   41.1414    3.5476
  0.900   41.2635    3.3242   41.1070    3.5390   41.1180    3.5337   41.2230    3.3196   41.3377    3.5733   41.3309    3.5810
  0.910   41.4543    3.3558   41.2963    3.5722   41.3073    3.5669   41.4136    3.3512   41.5291    3.6071   41.5222    3.6148
  0.920   41.6470    3.3879   41.4874    3.6059   41.4985    3.6006   41.6060    3.3833   41.7223    3.6414   41.7154    3.6491
  0.930   41.8415    3.4204   41.6804    3.6401   41.6915    3.6348   41.8004    3.4159   41.9173    3.6762   41.9104    3.6839
  0.940   42.0378    3.4534   41.8752    3.6748   41.8864    3.6695   41.9966    3.4489   42.1143    3.7115   42.1074    3.7193
  0.950   42.2362    3.4869   42.0719    3.7100   42.0831    3.7046   42.1947    3.4824   42.3132    3.7474   42.3062    3.7551
  0.960   42.4364    3.5209   42.2706    3.7458   42.2818    3.7404   42.3948    3.5165   42.5140    3.7837   42.5071    3.7915
  0.970   42.6387    3.5554   42.4712    3.7820   42.4825    3.7766   42.5968    3.5510   42.7169    3.8206   42.7099    3.8284
  0.980   42.8429    3.5904   42.6737    3.8188   42.6851    3.8134   42.8009    3.5861   42.9217    3.8581   42.9147    3.8658
  0.990   43.0492    3.6259   42.8784    3.8562   42.8898    3.8507   43.0070    3.6216   43.1286    3.8961   43.1216    3.9039
  1.000   43.2576    3.6620   43.0850    3.8941   43.0965    3.8886   43.2152    3.6578   43.3376    3.9347   43.3305    3.9425
  1.010   43.4680    3.6986   43.2937    3.9325   43.3053    3.9270   43.4254    3.6945   43.5487    3.9739   43.5416    3.9817
  1.020   43.6806    3.7358   43.5046    3.9716   43.5162    3.9661   43.6379    3.7317   43.7619    4.0136   43.7548    4.0214
  1.030   43.8954    3.7736   43.7175    4.0112   43.7292    4.0057   43.8524    3.7695   43.9773    4.0540   43.9702    4.0618
  1.040   44.1123    3.8119   43.9327    4.0515   43.9444    4.0460   44.0692    3.8079   44.1950    4.0950   44.1878    4.1029
  1.050   44.3315    3.8509   44.1500    4.0924   44.1618    4.0868   44.2882    3.8469   44.4148    4.1366   44.4076    4.1445
  1.060   44.5530    3.8904   44.3696    4.1339   44.3815    4.1283   44.5095    3.8865   44.6369    4.1789   44.6297    4.1868
  1.070   44.7768    3.9306   44.5914    4.1761   44.6034    4.1705   44.7331    3.9268   44.8614    4.2219   44.8541    4.2298
  1.080   45.0029    3.9714   44.8156    4.2189   44.8276    4.2133   44.9590    3.9677   45.0882    4.2655   45.0809    4.2734
  1.090   45.2313    4.0129   45.0421    4.2624   45.0542    4.2568   45.1873    4.0092   45.3173    4.3098   45.3100    4.3178
  1.100   45.4622    4.0550   45.2710    4.3066   45.2832    4.3009   45.4180    4.0514   45.5489    4.3549   45.5416    4.3628
  1.110   45.6956    4.0978   45.5023    4.3515   45.5145    4.3458   45.6511    4.0943   45.7830    4.4006   45.7756    4.4086
  1.120   45.9314    4.1413   45.7361    4.3971   45.7484    4.3914   45.8868    4.1378   46.0195    4.4471   46.0122    4.4551
  1.130   46.1698    4.1855   45.9724    4.4434   45.9847    4.4377   46.1250    4.1821   46.2586    4.4943   46.2512    4.5023
  1.140   46.4107    4.2305   46.2112    4.4905   46.2236    4.4848   46.3657    4.2271   46.5003    4.5424   46.4929    4.5503
  1.150   46.6543    4.2761   46.4526    4.5384   46.4651    4.5326   46.6091    4.2729   46.7446    4.5912   46.7372    4.5991
  1.160   46.9005    4.3225   46.6966    4.5870   46.7092    4.5812   46.8552    4.3194   46.9916    4.6408   46.9841    4.6487
  1.170   47.1495    4.3697   46.9433    4.6364   46.9559    4.6307   47.1039    4.3667   47.2413    4.6912   47.2338    4.6992
  1.180   47.4011    4.4177   47.1927    4.6867   47.2054    4.6809   47.3554    4.4147   47.4937    4.7424   47.4862    4.7504
  1.190   47.6556    4.4665   47.4449    4.7378   47.4576    4.7320   47.6097    4.4636   47.7490    4.7946   47.7414    4.8026
  1.200   47.9129    4.5161   47.6998    4.7897   47.7126    4.7839   47.8668    4.5134   48.0071    4.8476   47.9995    4.8556
  1.210   48.1731    4.5666   47.9576    4.8426   47.9705    4.8367   48.1268    4.5639   48.2680    4.9015   48.2605    4.9095
  1.220   48.4362    4.6179   48.2183    4.8963   48.2313    4.8904   48.3898    4.6154   48.5320    4.9563   48.5244    4.9643
  1.230   48.7024    4.6701   48.4820    4.9509   48.4950    4.9450   48.6557    4.6677   48.7989    5.0120   48.7913    5.0201
  1.240   48.9715    4.7232   48.7486    5.0065   48.7617    5.0006   48.9247    4.7209   49.0689    5.0688   49.0613    5.0768
  1.250   49.2438    4.7773   49.0183    5.0630   49.0315    5.0571   49.1968    4.7751   49.3420    5.1265   49.3344    5.1345
  1.260   49.5192    4.8322   49.2911    5.1205   49.3043    5.1146   49.4720    4.8302   49.6182    5.1852   49.6106    5.1932
  1.270   49.7978    4.8882   49.5670    5.1791   49.5803    5.1731   49.7504    4.8863   49.8977    5.2449   49.8900    5.2530
  1.280   50.0796    4.9451   49.8462    5.2386   49.8595    5.2326   50.0321    4.9433   50.1804    5.3058   50.1727    5.3138
  1.290   50.3648    5.0031   50.1286    5.2992   50.1420    5.2932   50.3170    5.0015   50.4664    5.3676   50.4587    5.3757
  1.300   50.6533    5.0621   50.4143    5.3609   50.4278    5.3548   50.6054    5.0606   50.7559    5.4306   50.7481    5.4387
  1.310   50.9453    5.1222   50.7035    5.4236   50.7170    5.4176   50.8972    5.1208   51.0487    5.4948   51.0410    5.5028
  1.320   51.2407    5.1833   50.9960    5.4875   51.0097    5.4815   51.1925    5.1822   51.3451    5.5601   51.3373    5.5681
  1.330   51.5397    5.2456   51.2921    5.5526   51.3058    5.5465   51.4913    5.2446   51.6450    5.6265   51.6373    5.6346
  1.340   51.8424    5.3090   51.5917    5.6188   51.6055    5.6127   51.7938    5.3082   51.9486    5.6942   51.9408    5.7023
  1.350   52.1487    5.3736   51.8950    5.6863   51.9088    5.6802   52.1000    5.3730   52.2559    5.7632   52.2481    5.7713
  1.360   52.4588    5.4394   52.2019    5.7550   52.2159    5.7489   52.4099    5.4390   52.5669    5.8334   52.5591    5.8415
  1.370   52.7727    5.5065   52.5127    5.8250   52.5267    5.8188   52.7236    5.5062   52.8818    5.9050   52.8740    5.9130
  1.380   53.0904    5.5748   52.8272    5.8962   52.8413    5.8901   53.0412    5.5747   53.2006    5.9779   53.1927    5.9859
  1.390   53.4122    5.6444   53.1457    5.9689   53.1599    5.9627   53.3629    5.6445   53.5233    6.0522   53.5155    6.0602
  1.400   53.7380    5.7153   53.4681    6.0429   53.4824    6.0367   53.6885    5.7157   53.8501    6.1279   53.8423    6.1359
  1.410   54.0679    5.7877   53.7946    6.1183   53.8090    6.1121   54.0183    5.7882   54.1811    6.2050   54.1732    6.2130
  1.420   54.4021    5.8614   54.1253    6.1951   54.1397    6.1889   54.3523    5.8622   54.5162    6.2836   54.5084    6.2917
  1.430   54.7405    5.9365   54.4601    6.2734   54.4746    6.2672   54.6905    5.9376   54.8557    6.3638   54.8478    6.3718
  1.440   55.0832    6.0131   54.7992    6.3533   54.8138    6.3471   55.0331    6.0144   55.1995    6.4455   55.1916    6.4535
  1.450   55.4304    6.0913   55.1427    6.4347   55.1574    6.4285   55.3802    6.0928   55.5478    6.5289   55.5399    6.5369
  1.460   55.7822    6.1710   55.4907    6.5178   55.5055    6.5115   55.7318    6.1728   55.9006    6.6139   55.8927    6.6219
  1.470   56.1385    6.2523   55.8432    6.6024   55.8581    6.5961   56.0881    6.2544   56.2581    6.7006   56.2502    6.7086
  1.480   56.4996    6.3352   56.2004    6.6888   56.2153    6.6825   56.4490    6.3376   56.6203    6.7891   56.6124    6.7970
