# Macroscopic dielectric function obtained with the BS equation.
#  RPA L0 with KS energies and KS wavefunctions     LOCAL FIELD EFFECTS INCLUDED
# RESONANT-ONLY calculation
# Coulomb term constructed with full W(G1,G2)
# Scissor operator energy =  0.8000 [eV]
# Tolerance = -0.0010 0.0000
# npweps  = 113
# npwwfn  = 259
# nbands  = 8
# loband  = 2
# nkibz   = 3
# nkbz    = 8
# Lorentzian broadening =  0.0001 [eV]
# List of q-points for the optical limit:
# q =  0.938821, 0.000000, 0.000000, [Reduced coords] 
# q =  0.000000, 0.938821, 0.000000, [Reduced coords] 
# q =  0.000000, 0.000000, 0.938821, [Reduced coords] 
# q =  0.000000, 0.813043, 0.813043, [Reduced coords] 
# q =  0.813043, 0.000000, 0.813043, [Reduced coords] 
# q =  0.813043, 0.813043, 0.000000, [Reduced coords] 
# omega [eV]    RE(eps(q=1)) IM(eps(q=1) RE(eps(q=2) ) ... 
  0.000   55.7451    0.0000   55.6906    0.0000   55.7020    0.0000   55.7206    0.0000   55.7987    0.0000   55.7944    0.0000
  0.010   55.7456    0.0087   55.6912    0.0093   55.7026    0.0093   55.7211    0.0087   55.7992    0.0094   55.7949    0.0094
  0.020   55.7473    0.0174   55.6929    0.0186   55.7043    0.0185   55.7228    0.0174   55.8009    0.0188   55.7966    0.0188
  0.030   55.7501    0.0261   55.6957    0.0278   55.7071    0.0278   55.7256    0.0260   55.8038    0.0282   55.7995    0.0283
  0.040   55.7541    0.0348   55.6996    0.0371   55.7110    0.0371   55.7296    0.0347   55.8077    0.0376   55.8034    0.0377
  0.050   55.7591    0.0435   55.7047    0.0464   55.7161    0.0463   55.7346    0.0434   55.8128    0.0470   55.8085    0.0471
  0.060   55.7653    0.0523   55.7109    0.0557   55.7222    0.0556   55.7408    0.0521   55.8190    0.0564   55.8147    0.0566
  0.070   55.7726    0.0610   55.7182    0.0650   55.7296    0.0649   55.7482    0.0608   55.8263    0.0659   55.8220    0.0660
  0.080   55.7811    0.0697   55.7266    0.0743   55.7380    0.0742   55.7566    0.0695   55.8348    0.0753   55.8305    0.0755
  0.090   55.7907    0.0785   55.7362    0.0836   55.7475    0.0835   55.7662    0.0782   55.8444    0.0848   55.8401    0.0849
  0.100   55.8014    0.0872   55.7468    0.0930   55.7582    0.0928   55.7769    0.0870   55.8552    0.0942   55.8509    0.0944
  0.110   55.8132    0.0960   55.7587    0.1023   55.7701    0.1022   55.7887    0.0957   55.8670    0.1037   55.8627    0.1039
  0.120   55.8262    0.1047   55.7716    0.1117   55.7830    0.1115   55.8017    0.1045   55.8801    0.1131   55.8758    0.1134
  0.130   55.8403    0.1135   55.7857    0.1210   55.7971    0.1209   55.8158    0.1132   55.8942    0.1226   55.8899    0.1229
  0.140   55.8556    0.1223   55.8009    0.1304   55.8123    0.1302   55.8311    0.1220   55.9095    0.1321   55.9052    0.1324
  0.150   55.8720    0.1312   55.8172    0.1398   55.8287    0.1396   55.8474    0.1308   55.9259    0.1417   55.9216    0.1419
  0.160   55.8895    0.1400   55.8347    0.1492   55.8461    0.1490   55.8650    0.1396   55.9435    0.1512   55.9392    0.1515
  0.170   55.9082    0.1488   55.8534    0.1586   55.8648    0.1584   55.8836    0.1484   55.9622    0.1608   55.9579    0.1611
  0.180   55.9280    0.1577   55.8731    0.1681   55.8846    0.1679   55.9035    0.1573   55.9821    0.1703   55.9778    0.1707
  0.190   55.9490    0.1666   55.8940    0.1776   55.9055    0.1773   55.9244    0.1661   56.0032    0.1799   55.9988    0.1803
  0.200   55.9711    0.1755   55.9161    0.1871   55.9276    0.1868   55.9465    0.1750   56.0253    0.1896   56.0210    0.1899
  0.210   55.9944    0.1844   55.9393    0.1966   55.9508    0.1963   55.9698    0.1839   56.0487    0.1992   56.0444    0.1996
  0.220   56.0188    0.1934   55.9637    0.2061   55.9752    0.2059   55.9942    0.1929   56.0732    0.2089   56.0689    0.2093
  0.230   56.0444    0.2024   55.9892    0.2157   56.0007    0.2154   56.0198    0.2018   56.0989    0.2186   56.0945    0.2190
  0.240   56.0712    0.2114   56.0159    0.2253   56.0274    0.2250   56.0466    0.2108   56.1257    0.2283   56.1214    0.2287
  0.250   56.0991    0.2204   56.0438    0.2349   56.0553    0.2346   56.0745    0.2198   56.1537    0.2381   56.1494    0.2385
  0.260   56.1282    0.2295   56.0728    0.2446   56.0843    0.2442   56.1036    0.2289   56.1829    0.2478   56.1786    0.2483
  0.270   56.1585    0.2385   56.1030    0.2542   56.1145    0.2539   56.1339    0.2379   56.2132    0.2577   56.2089    0.2581
  0.280   56.1900    0.2477   56.1344    0.2639   56.1459    0.2636   56.1653    0.2470   56.2448    0.2675   56.2405    0.2680
  0.290   56.2226    0.2568   56.1669    0.2737   56.1785    0.2733   56.1979    0.2561   56.2775    0.2774   56.2732    0.2779
  0.300   56.2564    0.2660   56.2007    0.2835   56.2122    0.2831   56.2317    0.2653   56.3114    0.2873   56.3071    0.2878
  0.310   56.2915    0.2752   56.2356    0.2933   56.2471    0.2929   56.2667    0.2745   56.3465    0.2972   56.3422    0.2978
  0.320   56.3277    0.2845   56.2717    0.3031   56.2833    0.3028   56.3029    0.2837   56.3829    0.3072   56.3785    0.3078
  0.330   56.3651    0.2937   56.3090    0.3130   56.3206    0.3126   56.3403    0.2930   56.4204    0.3173   56.4160    0.3179
  0.340   56.4037    0.3031   56.3476    0.3230   56.3591    0.3226   56.3789    0.3023   56.4591    0.3273   56.4548    0.3279
  0.350   56.4436    0.3124   56.3873    0.3329   56.3989    0.3325   56.4188    0.3116   56.4990    0.3374   56.4947    0.3381
  0.360   56.4846    0.3218   56.4282    0.3429   56.4398    0.3425   56.4598    0.3210   56.5402    0.3476   56.5359    0.3482
  0.370   56.5269    0.3313   56.4704    0.3530   56.4820    0.3526   56.5020    0.3304   56.5826    0.3578   56.5783    0.3585
  0.380   56.5704    0.3408   56.5138    0.3631   56.5254    0.3626   56.5455    0.3399   56.6262    0.3680   56.6219    0.3687
  0.390   56.6151    0.3503   56.5584    0.3733   56.5700    0.3728   56.5902    0.3494   56.6711    0.3783   56.6667    0.3790
  0.400   56.6611    0.3599   56.6042    0.3834   56.6159    0.3830   56.6362    0.3589   56.7172    0.3887   56.7128    0.3894
  0.410   56.7083    0.3695   56.6513    0.3937   56.6630    0.3932   56.6834    0.3685   56.7645    0.3990   56.7602    0.3998
  0.420   56.7568    0.3792   56.6997    0.4040   56.7114    0.4035   56.7319    0.3782   56.8131    0.4095   56.8088    0.4102
  0.430   56.8065    0.3889   56.7493    0.4143   56.7610    0.4138   56.7816    0.3879   56.8630    0.4200   56.8586    0.4208
  0.440   56.8575    0.3986   56.8001    0.4247   56.8119    0.4242   56.8325    0.3976   56.9141    0.4305   56.9098    0.4313
  0.450   56.9098    0.4085   56.8523    0.4352   56.8640    0.4347   56.8848    0.4074   56.9665    0.4411   56.9622    0.4419
  0.460   56.9633    0.4183   56.9057    0.4457   56.9174    0.4452   56.9383    0.4173   57.0202    0.4518   57.0159    0.4526
  0.470   57.0182    0.4283   56.9604    0.4563   56.9721    0.4557   56.9931    0.4272   57.0752    0.4625   57.0709    0.4634
  0.480   57.0743    0.4383   57.0163    0.4669   57.0281    0.4663   57.0492    0.4372   57.1315    0.4733   57.1271    0.4742
  0.490   57.1318    0.4483   57.0736    0.4776   57.0854    0.4770   57.1066    0.4472   57.1891    0.4841   57.1847    0.4850
  0.500   57.1905    0.4584   57.1322    0.4884   57.1440    0.4878   57.1654    0.4573   57.2480    0.4950   57.2436    0.4959
  0.510   57.2506    0.4686   57.1921    0.4992   57.2039    0.4986   57.2254    0.4674   57.3082    0.5060   57.3039    0.5069
  0.520   57.3120    0.4788   57.2533    0.5101   57.2652    0.5094   57.2868    0.4777   57.3698    0.5171   57.3654    0.5180
  0.530   57.3747    0.4891   57.3159    0.5210   57.3278    0.5204   57.3495    0.4879   57.4327    0.5282   57.4283    0.5291
  0.540   57.4387    0.4995   57.3798    0.5320   57.3917    0.5314   57.4135    0.4983   57.4969    0.5394   57.4925    0.5403
  0.550   57.5042    0.5099   57.4450    0.5431   57.4569    0.5425   57.4789    0.5087   57.5625    0.5506   57.5581    0.5516
  0.560   57.5710    0.5204   57.5116    0.5543   57.5236    0.5536   57.5457    0.5192   57.6295    0.5619   57.6251    0.5629
  0.570   57.6391    0.5310   57.5796    0.5655   57.5915    0.5649   57.6138    0.5297   57.6978    0.5733   57.6934    0.5744
  0.580   57.7087    0.5416   57.6489    0.5769   57.6609    0.5762   57.6833    0.5403   57.7676    0.5848   57.7632    0.5859
  0.590   57.7796    0.5523   57.7197    0.5883   57.7317    0.5875   57.7542    0.5510   57.8387    0.5964   57.8343    0.5974
  0.600   57.8519    0.5631   57.7918    0.5997   57.8038    0.5990   57.8265    0.5618   57.9112    0.6080   57.9068    0.6091
  0.610   57.9257    0.5740   57.8654    0.6113   57.8774    0.6106   57.9002    0.5727   57.9852    0.6198   57.9808    0.6209
  0.620   58.0008    0.5850   57.9403    0.6229   57.9524    0.6222   57.9753    0.5836   58.0606    0.6316   58.0561    0.6327
  0.630   58.0774    0.5960   58.0167    0.6347   58.0288    0.6339   58.0519    0.5946   58.1374    0.6435   58.1329    0.6446
  0.640   58.1555    0.6071   58.0945    0.6465   58.1066    0.6457   58.1299    0.6057   58.2156    0.6555   58.2112    0.6566
  0.650   58.2350    0.6183   58.1738    0.6584   58.1859    0.6576   58.2094    0.6169   58.2954    0.6676   58.2909    0.6687
  0.660   58.3159    0.6296   58.2546    0.6704   58.2667    0.6696   58.2903    0.6282   58.3765    0.6797   58.3721    0.6809
  0.670   58.3984    0.6410   58.3368    0.6825   58.3489    0.6817   58.3727    0.6395   58.4592    0.6920   58.4548    0.6932
  0.680   58.4823    0.6524   58.4205    0.6947   58.4327    0.6939   58.4566    0.6510   58.5434    0.7044   58.5390    0.7056
  0.690   58.5678    0.6640   58.5057    0.7070   58.5179    0.7061   58.5421    0.6625   58.6291    0.7168   58.6246    0.7181
  0.700   58.6547    0.6757   58.5924    0.7193   58.6047    0.7185   58.6290    0.6742   58.7163    0.7294   58.7118    0.7307
  0.710   58.7432    0.6874   58.6806    0.7318   58.6929    0.7310   58.7174    0.6859   58.8050    0.7421   58.8006    0.7434
  0.720   58.8333    0.6993   58.7704    0.7444   58.7827    0.7436   58.8074    0.6977   58.8953    0.7549   58.8909    0.7562
  0.730   58.9249    0.7112   58.8618    0.7571   58.8741    0.7563   58.8990    0.7097   58.9872    0.7678   58.9827    0.7691
  0.740   59.0180    0.7233   58.9547    0.7699   58.9670    0.7691   58.9921    0.7217   59.0806    0.7808   59.0761    0.7821
  0.750   59.1128    0.7355   59.0492    0.7829   59.0615    0.7820   59.0868    0.7339   59.1756    0.7939   59.1711    0.7952
  0.760   59.2091    0.7477   59.1452    0.7959   59.1576    0.7950   59.1832    0.7461   59.2722    0.8071   59.2678    0.8085
  0.770   59.3071    0.7601   59.2429    0.8091   59.2554    0.8081   59.2811    0.7585   59.3705    0.8205   59.3660    0.8219
  0.780   59.4067    0.7726   59.3422    0.8223   59.3547    0.8214   59.3806    0.7710   59.4704    0.8340   59.4659    0.8354
  0.790   59.5079    0.7853   59.4432    0.8357   59.4557    0.8348   59.4818    0.7836   59.5719    0.8476   59.5674    0.8490
  0.800   59.6108    0.7980   59.5458    0.8493   59.5583    0.8483   59.5847    0.7963   59.6751    0.8613   59.6706    0.8628
  0.810   59.7154    0.8109   59.6501    0.8629   59.6626    0.8619   59.6892    0.8092   59.7800    0.8752   59.7755    0.8766
  0.820   59.8217    0.8238   59.7560    0.8767   59.7686    0.8757   59.7955    0.8222   59.8865    0.8892   59.8820    0.8906
  0.830   59.9297    0.8370   59.8637    0.8906   59.8764    0.8896   59.9034    0.8353   59.9948    0.9033   59.9903    0.9048
  0.840   60.0394    0.8502   59.9731    0.9047   59.9858    0.9036   60.0131    0.8485   60.1049    0.9176   60.1004    0.9191
  0.850   60.1508    0.8636   60.0843    0.9188   60.0970    0.9178   60.1245    0.8619   60.2167    0.9320   60.2121    0.9335
  0.860   60.2641    0.8771   60.1972    0.9332   60.2099    0.9321   60.2377    0.8753   60.3302    0.9466   60.3257    0.9481
  0.870   60.3791    0.8907   60.3118    0.9477   60.3246    0.9466   60.3527    0.8890   60.4456    0.9613   60.4410    0.9628
  0.880   60.4959    0.9045   60.4283    0.9623   60.4411    0.9612   60.4695    0.9028   60.5627    0.9761   60.5582    0.9777
  0.890   60.6145    0.9184   60.5466    0.9770   60.5594    0.9760   60.5880    0.9167   60.6817    0.9911   60.6772    0.9927
  0.900   60.7350    0.9325   60.6667    0.9920   60.6796    0.9909   60.7085    0.9307   60.8025    1.0063   60.7980    1.0079
  0.910   60.8573    0.9467   60.7887    1.0071   60.8016    1.0060   60.8308    0.9450   60.9252    1.0216   60.9207    1.0232
  0.920   60.9816    0.9611   60.9126    1.0223   60.9255    1.0212   60.9550    0.9593   61.0498    1.0371   61.0452    1.0387
  0.930   61.1077    0.9757   61.0383    1.0377   61.0513    1.0366   61.0810    0.9739   61.1763    1.0528   61.1717    1.0544
  0.940   61.2357    0.9904   61.1660    1.0533   61.1790    1.0522   61.2090    0.9886   61.3047    1.0686   61.3001    1.0703
  0.950   61.3657    1.0052   61.2956    1.0690   61.3087    1.0679   61.3390    1.0034   61.4351    1.0846   61.4305    1.0863
  0.960   61.4977    1.0202   61.4272    1.0850   61.4403    1.0838   61.4709    1.0184   61.5674    1.1008   61.5628    1.1025
  0.970   61.6316    1.0354   61.5607    1.1011   61.5739    1.0999   61.6048    1.0336   61.7018    1.1172   61.6972    1.1189
  0.980   61.7676    1.0508   61.6963    1.1174   61.7095    1.1162   61.7407    1.0490   61.8381    1.1337   61.8336    1.1354
  0.990   61.9056    1.0664   61.8339    1.1338   61.8471    1.1326   61.8787    1.0645   61.9765    1.1505   61.9720    1.1522
  1.000   62.0457    1.0821   61.9735    1.1505   61.9868    1.1493   62.0187    1.0803   62.1170    1.1674   62.1124    1.1692
  1.010   62.1878    1.0980   62.1153    1.1674   62.1286    1.1661   62.1608    1.0962   62.2596    1.1845   62.2550    1.1863
  1.020   62.3321    1.1141   62.2591    1.1844   62.2725    1.1832   62.3051    1.1123   62.4043    1.2019   62.3997    1.2037
  1.030   62.4785    1.1304   62.4051    1.2017   62.4185    1.2004   62.4514    1.1286   62.5512    1.2194   62.5466    1.2213
  1.040   62.6271    1.1469   62.5532    1.2192   62.5666    1.2179   62.6000    1.1451   62.7002    1.2372   62.6956    1.2390
  1.050   62.7779    1.1636   62.7035    1.2368   62.7170    1.2356   62.7507    1.1618   62.8514    1.2552   62.8468    1.2570
  1.060   62.9308    1.1805   62.8561    1.2547   62.8696    1.2535   62.9036    1.1787   63.0049    1.2734   63.0003    1.2752
  1.070   63.0861    1.1977   63.0108    1.2729   63.0244    1.2716   63.0588    1.1958   63.1606    1.2918   63.1560    1.2937
  1.080   63.2436    1.2150   63.1679    1.2912   63.1815    1.2899   63.2163    1.2132   63.3186    1.3105   63.3140    1.3124
  1.090   63.4035    1.2326   63.3272    1.3098   63.3409    1.3085   63.3761    1.2307   63.4789    1.3294   63.4743    1.3313
  1.100   63.5656    1.2503   63.4889    1.3286   63.5026    1.3273   63.5382    1.2485   63.6416    1.3485   63.6369    1.3504
  1.110   63.7302    1.2684   63.6529    1.3477   63.6667    1.3463   63.7027    1.2665   63.8066    1.3679   63.8020    1.3698
  1.120   63.8971    1.2866   63.8194    1.3670   63.8332    1.3656   63.8697    1.2848   63.9741    1.3875   63.9694    1.3895
  1.130   64.0665    1.3051   63.9882    1.3865   64.0021    1.3852   64.0390    1.3033   64.1440    1.4074   64.1393    1.4094
  1.140   64.2383    1.3238   64.1596    1.4063   64.1735    1.4050   64.2108    1.3220   64.3164    1.4276   64.3117    1.4296
  1.150   64.4127    1.3428   64.3334    1.4264   64.3473    1.4250   64.3851    1.3410   64.4913    1.4480   64.4866    1.4500
  1.160   64.5896    1.3621   64.5097    1.4468   64.5237    1.4454   64.5620    1.3603   64.6687    1.4687   64.6640    1.4708
  1.170   64.7690    1.3816   64.6886    1.4674   64.7027    1.4660   64.7414    1.3798   64.8487    1.4897   64.8440    1.4918
  1.180   64.9511    1.4014   64.8701    1.4883   64.8842    1.4869   64.9234    1.3996   65.0314    1.5110   65.0267    1.5130
  1.190   65.1358    1.4214   65.0542    1.5095   65.0684    1.5081   65.1081    1.4197   65.2167    1.5326   65.2120    1.5346
  1.200   65.3232    1.4418   65.2410    1.5310   65.2553    1.5295   65.2954    1.4400   65.4046    1.5545   65.4000    1.5565
  1.210   65.5134    1.4624   65.4306    1.5528   65.4449    1.5513   65.4855    1.4607   65.5954    1.5767   65.5907    1.5787
  1.220   65.7062    1.4833   65.6229    1.5749   65.6372    1.5734   65.6784    1.4816   65.7889    1.5992   65.7842    1.6012
  1.230   65.9019    1.5045   65.8179    1.5973   65.8323    1.5958   65.8740    1.5029   65.9852    1.6220   65.9805    1.6241
  1.240   66.1005    1.5261   66.0158    1.6200   66.0303    1.6186   66.0725    1.5244   66.1843    1.6451   66.1796    1.6472
  1.250   66.3019    1.5479   66.2166    1.6431   66.2311    1.6416   66.2739    1.5463   66.3864    1.6686   66.3817    1.6708
  1.260   66.5063    1.5701   66.4203    1.6665   66.4349    1.6650   66.4782    1.5685   66.5914    1.6925   66.5867    1.6946
  1.270   66.7136    1.5926   66.6270    1.6903   66.6416    1.6888   66.6855    1.5910   66.7994    1.7167   66.7947    1.7188
  1.280   66.9240    1.6154   66.8367    1.7144   66.8514    1.7129   66.8959    1.6139   67.0105    1.7412   67.0057    1.7434
  1.290   67.1374    1.6386   67.0494    1.7388   67.0642    1.7373   67.1093    1.6371   67.2246    1.7661   67.2199    1.7683
  1.300   67.3539    1.6622   67.2652    1.7637   67.2801    1.7622   67.3258    1.6607   67.4418    1.7915   67.4371    1.7936
  1.310   67.5736    1.6861   67.4842    1.7889   67.4991    1.7874   67.5455    1.6846   67.6623    1.8172   67.6575    1.8193
  1.320   67.7966    1.7104   67.7064    1.8145   67.7214    1.8130   67.7684    1.7089   67.8859    1.8432   67.8812    1.8454
  1.330   68.0228    1.7350   67.9319    1.8405   67.9469    1.8390   67.9945    1.7336   68.1129    1.8697   68.1081    1.8720
  1.340   68.2523    1.7601   68.1606    1.8670   68.1757    1.8654   68.2240    1.7587   68.3431    1.8967   68.3384    1.8989
  1.350   68.4852    1.7855   68.3928    1.8938   68.4079    1.8922   68.4569    1.7842   68.5768    1.9240   68.5721    1.9263
  1.360   68.7215    1.8114   68.6283    1.9211   68.6435    1.9195   68.6932    1.8101   68.8139    1.9518   68.8092    1.9540
  1.370   68.9614    1.8377   68.8673    1.9488   68.8826    1.9472   68.9330    1.8364   69.0545    1.9800   69.0498    1.9823
  1.380   69.2047    1.8644   69.1099    1.9769   69.1253    1.9753   69.1763    1.8632   69.2987    2.0087   69.2940    2.0110
  1.390   69.4517    1.8915   69.3560    2.0055   69.3715    2.0039   69.4233    1.8904   69.5465    2.0379   69.5418    2.0402
  1.400   69.7023    1.9191   69.6058    2.0346   69.6213    2.0330   69.6739    1.9180   69.7980    2.0676   69.7932    2.0698
  1.410   69.9567    1.9472   69.8593    2.0642   69.8749    2.0625   69.9283    1.9462   70.0532    2.0977   70.0485    2.1000
  1.420   70.2149    1.9757   70.1166    2.0942   70.1323    2.0926   70.1864    1.9748   70.3122    2.1284   70.3075    2.1306
  1.430   70.4769    2.0047   70.3778    2.1248   70.3935    2.1232   70.4484    2.0038   70.5752    2.1595   70.5704    2.1618
  1.440   70.7429    2.0343   70.6428    2.1559   70.6586    2.1542   70.7144    2.0334   70.8420    2.1912   70.8373    2.1935
  1.450   71.0128    2.0643   70.9118    2.1875   70.9277    2.1859   70.9843    2.0635   71.1129    2.2235   71.1082    2.2258
  1.460   71.2869    2.0949   71.1849    2.2197   71.2009    2.2180   71.2584    2.0942   71.3879    2.2563   71.3831    2.2586
  1.470   71.5650    2.1260   71.4621    2.2524   71.4782    2.2508   71.5365    2.1253   71.6670    2.2897   71.6623    2.2920
  1.480   71.8474    2.1576   71.7435    2.2858   71.7597    2.2841   71.8189    2.1571   71.9504    2.3237   71.9456    2.3260
