# Macroscopic dielectric function obtained with the BS equation.
#  RPA L0 with KS energies and KS wavefunctions     LOCAL FIELD EFFECTS INCLUDED
# RESONANT-ONLY calculation
# Coulomb term constructed with full W(G1,G2)
# Scissor operator energy =  0.8000 [eV]
# Tolerance = -0.0010 0.0000
# npweps  = 113
# npwwfn  = 259
# nbands  = 8
# loband  = 2
# nkibz   = 3
# nkbz    = 8
# Lorentzian broadening =  0.0001 [eV]
# List of q-points for the optical limit:
# q =  0.938821, 0.000000, 0.000000, [Reduced coords] 
# q =  0.000000, 0.938821, 0.000000, [Reduced coords] 
# q =  0.000000, 0.000000, 0.938821, [Reduced coords] 
# q =  0.000000, 0.813043, 0.813043, [Reduced coords] 
# q =  0.813043, 0.000000, 0.813043, [Reduced coords] 
# q =  0.813043, 0.813043, 0.000000, [Reduced coords] 
# omega [eV]    RE(eps(q=1)) IM(eps(q=1) RE(eps(q=2) ) ... 
  0.000   27.8903    0.2614   27.8834    0.2813   27.8884    0.2806   27.8853    0.2579   27.9073    0.2922   27.9063    0.2932
  0.010   27.9747    0.2630   27.9678    0.2830   27.9728    0.2824   27.9696    0.2595   27.9918    0.2940   27.9908    0.2950
  0.020   28.0596    0.2646   28.0526    0.2848   28.0577    0.2841   28.0545    0.2611   28.0768    0.2958   28.0758    0.2969
  0.030   28.1451    0.2662   28.1381    0.2865   28.1431    0.2859   28.1400    0.2627   28.1624    0.2977   28.1613    0.2987
  0.040   28.2311    0.2679   28.2240    0.2883   28.2291    0.2876   28.2260    0.2644   28.2485    0.2995   28.2475    0.3006
  0.050   28.3177    0.2696   28.3106    0.2901   28.3157    0.2894   28.3125    0.2661   28.3351    0.3014   28.3341    0.3024
  0.060   28.4048    0.2713   28.3977    0.2919   28.4028    0.2912   28.3996    0.2677   28.4224    0.3033   28.4214    0.3043
  0.070   28.4925    0.2730   28.4853    0.2937   28.4905    0.2931   28.4873    0.2694   28.5102    0.3052   28.5091    0.3062
  0.080   28.5807    0.2747   28.5735    0.2956   28.5787    0.2949   28.5755    0.2712   28.5985    0.3071   28.5975    0.3081
  0.090   28.6696    0.2765   28.6623    0.2974   28.6676    0.2968   28.6644    0.2729   28.6875    0.3090   28.6865    0.3101
  0.100   28.7590    0.2782   28.7517    0.2993   28.7570    0.2986   28.7538    0.2746   28.7770    0.3110   28.7760    0.3121
  0.110   28.8490    0.2800   28.8417    0.3012   28.8470    0.3005   28.8437    0.2764   28.8671    0.3130   28.8661    0.3140
  0.120   28.9396    0.2818   28.9322    0.3031   28.9375    0.3025   28.9343    0.2782   28.9579    0.3150   28.9568    0.3160
  0.130   29.0308    0.2836   29.0234    0.3051   29.0287    0.3044   29.0255    0.2800   29.0492    0.3170   29.0481    0.3181
  0.140   29.1226    0.2854   29.1152    0.3070   29.1205    0.3063   29.1173    0.2818   29.1411    0.3190   29.1401    0.3201
  0.150   29.2151    0.2873   29.2076    0.3090   29.2129    0.3083   29.2097    0.2836   29.2336    0.3211   29.2326    0.3222
  0.160   29.3081    0.2891   29.3006    0.3110   29.3060    0.3103   29.3027    0.2855   29.3268    0.3232   29.3258    0.3242
  0.170   29.4018    0.2910   29.3942    0.3130   29.3996    0.3123   29.3964    0.2874   29.4206    0.3253   29.4195    0.3263
  0.180   29.4961    0.2929   29.4885    0.3151   29.4939    0.3144   29.4907    0.2892   29.5150    0.3274   29.5140    0.3285
  0.190   29.5910    0.2949   29.5833    0.3171   29.5888    0.3164   29.5856    0.2912   29.6101    0.3295   29.6090    0.3306
  0.200   29.6866    0.2968   29.6789    0.3192   29.6844    0.3185   29.6811    0.2931   29.7058    0.3317   29.7047    0.3328
  0.210   29.7828    0.2988   29.7751    0.3213   29.7806    0.3206   29.7773    0.2950   29.8021    0.3339   29.8011    0.3350
  0.220   29.8797    0.3007   29.8719    0.3234   29.8775    0.3227   29.8742    0.2970   29.8992    0.3361   29.8981    0.3372
  0.230   29.9773    0.3027   29.9694    0.3255   29.9750    0.3248   29.9717    0.2990   29.9968    0.3383   29.9958    0.3394
  0.240   30.0755    0.3048   30.0676    0.3277   30.0732    0.3270   30.0699    0.3010   30.0952    0.3406   30.0941    0.3417
  0.250   30.1744    0.3068   30.1665    0.3299   30.1721    0.3292   30.1688    0.3030   30.1942    0.3428   30.1931    0.3439
  0.260   30.2740    0.3089   30.2660    0.3321   30.2717    0.3314   30.2684    0.3051   30.2939    0.3451   30.2929    0.3462
  0.270   30.3743    0.3110   30.3663    0.3343   30.3720    0.3336   30.3687    0.3072   30.3944    0.3474   30.3933    0.3486
  0.280   30.4753    0.3131   30.4672    0.3366   30.4729    0.3358   30.4696    0.3092   30.4955    0.3498   30.4944    0.3509
  0.290   30.5770    0.3152   30.5689    0.3388   30.5746    0.3381   30.5713    0.3114   30.5973    0.3522   30.5962    0.3533
  0.300   30.6794    0.3173   30.6712    0.3411   30.6770    0.3404   30.6737    0.3135   30.6999    0.3545   30.6988    0.3557
  0.310   30.7825    0.3195   30.7743    0.3435   30.7801    0.3427   30.7768    0.3157   30.8031    0.3570   30.8020    0.3581
  0.320   30.8864    0.3217   30.8781    0.3458   30.8840    0.3451   30.8806    0.3178   30.9071    0.3594   30.9060    0.3605
  0.330   30.9910    0.3239   30.9827    0.3482   30.9885    0.3474   30.9852    0.3201   31.0119    0.3619   31.0108    0.3630
  0.340   31.0963    0.3262   31.0880    0.3506   31.0939    0.3498   31.0905    0.3223   31.1174    0.3644   31.1162    0.3655
  0.350   31.2024    0.3284   31.1940    0.3530   31.2000    0.3522   31.1966    0.3245   31.2236    0.3669   31.2225    0.3680
  0.360   31.3093    0.3307   31.3008    0.3554   31.3068    0.3547   31.3035    0.3268   31.3306    0.3694   31.3295    0.3706
  0.370   31.4169    0.3330   31.4084    0.3579   31.4144    0.3572   31.4111    0.3291   31.4384    0.3720   31.4373    0.3732
  0.380   31.5253    0.3354   31.5168    0.3604   31.5228    0.3597   31.5195    0.3314   31.5470    0.3746   31.5458    0.3758
  0.390   31.6346    0.3377   31.6260    0.3629   31.6320    0.3622   31.6287    0.3338   31.6563    0.3772   31.6552    0.3784
  0.400   31.7446    0.3401   31.7359    0.3655   31.7420    0.3647   31.7386    0.3362   31.7665    0.3799   31.7653    0.3811
  0.410   31.8554    0.3426   31.8467    0.3680   31.8528    0.3673   31.8494    0.3386   31.8774    0.3826   31.8763    0.3837
  0.420   31.9670    0.3450   31.9582    0.3707   31.9644    0.3699   31.9610    0.3410   31.9892    0.3853   31.9880    0.3865
  0.430   32.0794    0.3475   32.0706    0.3733   32.0768    0.3725   32.0734    0.3435   32.1018    0.3880   32.1006    0.3892
  0.440   32.1927    0.3500   32.1839    0.3759   32.1901    0.3752   32.1867    0.3459   32.2152    0.3908   32.2141    0.3920
  0.450   32.3068    0.3525   32.2979    0.3786   32.3042    0.3779   32.3008    0.3484   32.3295    0.3936   32.3284    0.3948
  0.460   32.4218    0.3550   32.4129    0.3814   32.4191    0.3806   32.4158    0.3510   32.4447    0.3965   32.4435    0.3976
  0.470   32.5377    0.3576   32.5286    0.3841   32.5349    0.3834   32.5316    0.3535   32.5607    0.3993   32.5595    0.4005
  0.480   32.6544    0.3602   32.6453    0.3869   32.6516    0.3861   32.6482    0.3561   32.6775    0.4022   32.6764    0.4034
  0.490   32.7720    0.3629   32.7628    0.3897   32.7692    0.3889   32.7658    0.3588   32.7953    0.4052   32.7941    0.4063
  0.500   32.8904    0.3655   32.8812    0.3926   32.8876    0.3918   32.8843    0.3614   32.9139    0.4081   32.9128    0.4093
  0.510   33.0098    0.3682   33.0006    0.3954   33.0070    0.3947   33.0036    0.3641   33.0335    0.4111   33.0323    0.4123
  0.520   33.1301    0.3709   33.1208    0.3983   33.1273    0.3976   33.1239    0.3668   33.1540    0.4142   33.1528    0.4154
  0.530   33.2514    0.3737   33.2420    0.4013   33.2485    0.4005   33.2451    0.3696   33.2753    0.4172   33.2742    0.4184
  0.540   33.3735    0.3765   33.3641    0.4043   33.3706    0.4035   33.3672    0.3723   33.3977    0.4203   33.3965    0.4215
  0.550   33.4966    0.3793   33.4871    0.4073   33.4937    0.4065   33.4903    0.3751   33.5210    0.4235   33.5198    0.4247
  0.560   33.6207    0.3822   33.6111    0.4103   33.6177    0.4095   33.6143    0.3780   33.6452    0.4266   33.6440    0.4278
  0.570   33.7457    0.3851   33.7361    0.4134   33.7427    0.4126   33.7393    0.3809   33.7704    0.4298   33.7692    0.4311
  0.580   33.8717    0.3880   33.8620    0.4165   33.8687    0.4157   33.8653    0.3838   33.8966    0.4331   33.8954    0.4343
  0.590   33.9987    0.3909   33.9889    0.4197   33.9957    0.4189   33.9923    0.3867   34.0237    0.4364   34.0225    0.4376
  0.600   34.1267    0.3939   34.1169    0.4228   34.1236    0.4220   34.1203    0.3897   34.1519    0.4397   34.1507    0.4409
  0.610   34.2557    0.3969   34.2458    0.4261   34.2526    0.4253   34.2492    0.3927   34.2811    0.4430   34.2799    0.4443
  0.620   34.3857    0.4000   34.3758    0.4293   34.3826    0.4285   34.3793    0.3957   34.4114    0.4464   34.4101    0.4477
  0.630   34.5168    0.4031   34.5068    0.4326   34.5137    0.4318   34.5103    0.3988   34.5426    0.4499   34.5414    0.4511
  0.640   34.6489    0.4062   34.6389    0.4360   34.6458    0.4351   34.6424    0.4019   34.6749    0.4534   34.6737    0.4546
  0.650   34.7821    0.4094   34.7720    0.4393   34.7789    0.4385   34.7756    0.4051   34.8083    0.4569   34.8071    0.4581
  0.660   34.9164    0.4126   34.9062    0.4428   34.9132    0.4419   34.9098    0.4083   34.9428    0.4604   34.9416    0.4617
  0.670   35.0518    0.4159   35.0415    0.4462   35.0485    0.4454   35.0451    0.4115   35.0784    0.4640   35.0771    0.4653
  0.680   35.1882    0.4191   35.1779    0.4497   35.1849    0.4489   35.1816    0.4148   35.2150    0.4677   35.2138    0.4690
  0.690   35.3258    0.4225   35.3154    0.4533   35.3225    0.4524   35.3191    0.4181   35.3528    0.4714   35.3516    0.4727
  0.700   35.4645    0.4258   35.4541    0.4568   35.4612    0.4560   35.4578    0.4215   35.4917    0.4751   35.4905    0.4764
  0.710   35.6044    0.4292   35.5938    0.4605   35.6010    0.4596   35.5977    0.4249   35.6318    0.4789   35.6306    0.4802
  0.720   35.7454    0.4327   35.7348    0.4641   35.7420    0.4633   35.7387    0.4283   35.7731    0.4827   35.7718    0.4840
  0.730   35.8876    0.4362   35.8769    0.4679   35.8842    0.4670   35.8808    0.4318   35.9155    0.4866   35.9142    0.4879
  0.740   36.0310    0.4397   36.0202    0.4716   36.0275    0.4708   36.0242    0.4353   36.0591    0.4905   36.0578    0.4918
  0.750   36.1756    0.4433   36.1648    0.4754   36.1721    0.4746   36.1688    0.4389   36.2039    0.4945   36.2026    0.4958
  0.760   36.3214    0.4469   36.3105    0.4793   36.3179    0.4784   36.3146    0.4425   36.3499    0.4985   36.3486    0.4998
  0.770   36.4685    0.4506   36.4575    0.4832   36.4649    0.4824   36.4616    0.4461   36.4972    0.5026   36.4959    0.5039
  0.780   36.6168    0.4543   36.6057    0.4871   36.6132    0.4863   36.6099    0.4498   36.6457    0.5067   36.6444    0.5080
  0.790   36.7663    0.4581   36.7552    0.4911   36.7627    0.4903   36.7594    0.4536   36.7955    0.5109   36.7942    0.5122
  0.800   36.9172    0.4619   36.9060    0.4952   36.9135    0.4944   36.9102    0.4574   36.9466    0.5151   36.9453    0.5164
  0.810   37.0694    0.4657   37.0580    0.4993   37.0657    0.4985   37.0624    0.4612   37.0990    0.5194   37.0977    0.5207
  0.820   37.2228    0.4696   37.2114    0.5035   37.2191    0.5026   37.2158    0.4651   37.2527    0.5237   37.2514    0.5251
  0.830   37.3777    0.4736   37.3662    0.5077   37.3739    0.5068   37.3706    0.4691   37.4078    0.5281   37.4065    0.5295
  0.840   37.5338    0.4776   37.5223    0.5119   37.5300    0.5111   37.5267    0.4731   37.5642    0.5326   37.5629    0.5339
  0.850   37.6914    0.4817   37.6797    0.5163   37.6875    0.5154   37.6843    0.4771   37.7220    0.5371   37.7207    0.5384
  0.860   37.8503    0.4858   37.8386    0.5206   37.8464    0.5198   37.8432    0.4812   37.8812    0.5417   37.8799    0.5430
  0.870   38.0107    0.4899   37.9988    0.5251   38.0067    0.5242   38.0035    0.4854   38.0418    0.5463   38.0405    0.5476
  0.880   38.1724    0.4942   38.1605    0.5296   38.1685    0.5287   38.1652    0.4896   38.2038    0.5510   38.2025    0.5523
  0.890   38.3356    0.4984   38.3237    0.5341   38.3316    0.5332   38.3284    0.4939   38.3673    0.5557   38.3660    0.5571
  0.900   38.5003    0.5028   38.4883    0.5387   38.4963    0.5379   38.4931    0.4982   38.5323    0.5605   38.5309    0.5619
  0.910   38.6665    0.5072   38.6543    0.5434   38.6624    0.5425   38.6592    0.5026   38.6987    0.5654   38.6974    0.5667
  0.920   38.8342    0.5116   38.8219    0.5481   38.8301    0.5473   38.8269    0.5070   38.8667    0.5703   38.8653    0.5717
  0.930   39.0034    0.5161   38.9911    0.5529   38.9992    0.5520   38.9961    0.5115   39.0362    0.5753   39.0348    0.5767
  0.940   39.1742    0.5207   39.1617    0.5578   39.1700    0.5569   39.1668    0.5161   39.2072    0.5804   39.2058    0.5818
  0.950   39.3465    0.5253   39.3340    0.5627   39.3422    0.5618   39.3391    0.5207   39.3798    0.5856   39.3785    0.5869
  0.960   39.5204    0.5300   39.5078    0.5677   39.5161    0.5668   39.5130    0.5254   39.5540    0.5908   39.5527    0.5921
  0.970   39.6960    0.5348   39.6833    0.5728   39.6916    0.5719   39.6885    0.5302   39.7299    0.5961   39.7285    0.5974
  0.980   39.8732    0.5396   39.8603    0.5779   39.8688    0.5770   39.8657    0.5350   39.9074    0.6014   39.9060    0.6028
  0.990   40.0520    0.5445   40.0391    0.5831   40.0476    0.5822   40.0445    0.5399   40.0865    0.6068   40.0851    0.6082
  1.000   40.2326    0.5495   40.2195    0.5884   40.2281    0.5875   40.2250    0.5448   40.2673    0.6123   40.2660    0.6137
  1.010   40.4148    0.5545   40.4017    0.5937   40.4103    0.5928   40.4073    0.5499   40.4499    0.6179   40.4485    0.6193
  1.020   40.5988    0.5596   40.5856    0.5992   40.5942    0.5983   40.5912    0.5550   40.6342    0.6236   40.6328    0.6250
  1.030   40.7845    0.5648   40.7712    0.6047   40.7799    0.6038   40.7769    0.5601   40.8202    0.6293   40.8188    0.6307
  1.040   40.9721    0.5701   40.9586    0.6102   40.9674    0.6093   40.9644    0.5654   41.0081    0.6351   41.0067    0.6365
  1.050   41.1614    0.5754   41.1479    0.6159   41.1567    0.6150   41.1538    0.5707   41.1978    0.6410   41.1964    0.6424
  1.060   41.3526    0.5808   41.3389    0.6216   41.3478    0.6207   41.3449    0.5761   41.3893    0.6470   41.3879    0.6484
  1.070   41.5456    0.5863   41.5319    0.6275   41.5408    0.6265   41.5379    0.5816   41.5827    0.6531   41.5812    0.6545
  1.080   41.7406    0.5918   41.7267    0.6334   41.7357    0.6324   41.7328    0.5871   41.7779    0.6593   41.7765    0.6607
  1.090   41.9375    0.5975   41.9235    0.6394   41.9325    0.6384   41.9297    0.5928   41.9751    0.6655   41.9737    0.6669
  1.100   42.1363    0.6032   42.1222    0.6454   42.1313    0.6445   42.1285    0.5985   42.1743    0.6719   42.1729    0.6733
  1.110   42.3371    0.6090   42.3228    0.6516   42.3320    0.6507   42.3293    0.6043   42.3755    0.6783   42.3740    0.6797
  1.120   42.5399    0.6149   42.5255    0.6579   42.5348    0.6569   42.5320    0.6102   42.5786    0.6848   42.5772    0.6862
  1.130   42.7447    0.6209   42.7303    0.6642   42.7396    0.6633   42.7369    0.6162   42.7838    0.6915   42.7824    0.6929
  1.140   42.9517    0.6270   42.9371    0.6706   42.9464    0.6697   42.9438    0.6222   42.9911    0.6982   42.9897    0.6996
  1.150   43.1607    0.6331   43.1460    0.6772   43.1554    0.6762   43.1528    0.6284   43.2005    0.7050   43.1991    0.7064
  1.160   43.3719    0.6394   43.3570    0.6838   43.3665    0.6829   43.3639    0.6346   43.4121    0.7119   43.4106    0.7134
  1.170   43.5852    0.6457   43.5703    0.6906   43.5798    0.6896   43.5772    0.6410   43.6258    0.7190   43.6244    0.7204
  1.180   43.8008    0.6522   43.7857    0.6974   43.7953    0.6965   43.7928    0.6474   43.8418    0.7261   43.8403    0.7276
  1.190   44.0185    0.6587   44.0033    0.7043   44.0130    0.7034   44.0105    0.6540   44.0599    0.7334   44.0585    0.7348
  1.200   44.2386    0.6654   44.2233    0.7114   44.2330    0.7104   44.2306    0.6606   44.2804    0.7407   44.2789    0.7422
  1.210   44.4610    0.6721   44.4455    0.7186   44.4553    0.7176   44.4529    0.6674   44.5032    0.7482   44.5017    0.7497
  1.220   44.6857    0.6790   44.6701    0.7258   44.6800    0.7249   44.6776    0.6743   44.7283    0.7558   44.7268    0.7572
  1.230   44.9128    0.6860   44.8971    0.7332   44.9070    0.7323   44.9047    0.6812   44.9559    0.7635   44.9544    0.7650
  1.240   45.1424    0.6930   45.1265    0.7407   45.1365    0.7398   45.1342    0.6883   45.1858    0.7713   45.1843    0.7728
  1.250   45.3744    0.7002   45.3583    0.7483   45.3684    0.7474   45.3662    0.6955   45.4183    0.7793   45.4168    0.7808
  1.260   45.6089    0.7075   45.5927    0.7561   45.6029    0.7551   45.6007    0.7028   45.6532    0.7874   45.6517    0.7888
  1.270   45.8459    0.7149   45.8296    0.7639   45.8399    0.7630   45.8377    0.7102   45.8907    0.7956   45.8892    0.7971
  1.280   46.0856    0.7225   46.0691    0.7719   46.0794    0.7710   46.0774    0.7178   46.1308    0.8039   46.1293    0.8054
  1.290   46.3279    0.7301   46.3113    0.7801   46.3217    0.7791   46.3196    0.7254   46.3735    0.8124   46.3720    0.8139
  1.300   46.5728    0.7379   46.5561    0.7883   46.5665    0.7873   46.5646    0.7332   46.6190    0.8210   46.6175    0.8225
  1.310   46.8205    0.7458   46.8036    0.7967   46.8141    0.7957   46.8122    0.7412   46.8671    0.8298   46.8656    0.8313
  1.320   47.0710    0.7539   47.0539    0.8052   47.0645    0.8042   47.0627    0.7492   47.1180    0.8387   47.1165    0.8402
  1.330   47.3242    0.7621   47.3070    0.8139   47.3177    0.8129   47.3159    0.7574   47.3718    0.8477   47.3703    0.8492
  1.340   47.5803    0.7704   47.5629    0.8227   47.5737    0.8217   47.5720    0.7657   47.6284    0.8569   47.6269    0.8584
  1.350   47.8394    0.7788   47.8218    0.8316   47.8327    0.8306   47.8310    0.7742   47.8880    0.8663   47.8864    0.8678
  1.360   48.1014    0.7874   48.0837    0.8407   48.0946    0.8397   48.0930    0.7828   48.1505    0.8758   48.1490    0.8773
  1.370   48.3664    0.7962   48.3485    0.8500   48.3595    0.8490   48.3580    0.7916   48.4160    0.8855   48.4145    0.8870
  1.380   48.6345    0.8051   48.6164    0.8594   48.6275    0.8584   48.6261    0.8005   48.6846    0.8953   48.6831    0.8968
  1.390   48.9057    0.8141   48.8875    0.8690   48.8987    0.8680   48.8973    0.8096   48.9564    0.9053   48.9548    0.9068
  1.400   49.1801    0.8233   49.1617    0.8787   49.1730    0.8777   49.1717    0.8188   49.2313    0.9155   49.2298    0.9170
  1.410   49.4577    0.8327   49.4391    0.8886   49.4505    0.8876   49.4493    0.8282   49.5095    0.9259   49.5080    0.9273
  1.420   49.7386    0.8422   49.7198    0.8987   49.7313    0.8977   49.7302    0.8377   49.7910    0.9364   49.7894    0.9379
  1.430   50.0229    0.8519   50.0039    0.9090   50.0155    0.9080   50.0144    0.8474   50.0758    0.9471   50.0743    0.9486
  1.440   50.3106    0.8618   50.2914    0.9194   50.3031    0.9184   50.3021    0.8573   50.3641    0.9580   50.3625    0.9595
  1.450   50.6017    0.8718   50.5824    0.9301   50.5941    0.9290   50.5933    0.8674   50.6558    0.9691   50.6543    0.9706
  1.460   50.8964    0.8821   50.8769    0.9409   50.8887    0.9399   50.8879    0.8777   50.9511    0.9804   50.9496    0.9819
  1.470   51.1947    0.8925   51.1750    0.9519   51.1869    0.9509   51.1862    0.8881   51.2501    0.9919   51.2485    0.9934
  1.480   51.4967    0.9031   51.4768    0.9631   51.4888    0.9621   51.4882    0.8987   51.5527    1.0036   51.5511    1.0052
